spectral_axis,intensity
3932.25,6430.111
3933.89,4185.816
3935.52,3769.045
3937.16,3546.25
3938.79,3846.842
3940.42,3418.109
3942.06,3537.279
3943.69,4091.229
3945.32,3565.195
3946.96,4267.256
3948.59,3548.092
3950.23,3818.258
3951.86,3829.715
3953.49,4090.313
3955.13,3439.99
3956.76,3904.375
3958.39,3966.28
3960.03,3905.415
3961.66,4026.034
3963.3,3159.142
3964.93,3452.567
3966.56,3604.366
3968.2,3732.496
3969.83,3592.286
3971.47,3714.958
3973.1,3856.148
3974.73,3376.129
3976.37,3511.688
3978,3572.003
3979.64,3884.132
3981.27,3663.087
3982.9,3913.835
3984.54,3781.347
3986.17,3626.693
3987.8,3613.564
3989.44,3324.584
3991.07,2774.986
3992.71,2969.911
3994.34,2536.471
3995.97,2469.151
3997.61,2451.09
3999.24,2732.847
4000.88,3038.558
4002.51,3142.488
4004.14,3087.183
4005.78,3314.117
4007.41,3740.826
4009.04,3643.563
4010.68,3746.66
4012.31,3056.783
4013.95,3406.399
4015.58,4095.598
4017.21,3926.102
4018.85,4044.321
4020.48,4097.653
4022.11,4217.382
4023.75,4206.457
4025.38,4131.993
4027.02,4025.241
4028.65,3527.718
4030.28,3541.326
4031.92,3046.387
4033.55,3212.61
4035.19,3441.683
4036.82,3627.172
4038.45,3539.776
4040.09,3989.317
4041.72,3732.372
4043.36,3994.818
4044.99,3992.563
4046.62,4024.045
4048.26,4563.801
4049.89,4225.414
4051.52,4203.276
4053.16,3988.674
4054.79,4195.444
4056.43,4123.516
4058.06,4171.149
4059.69,4536.632
4061.33,4332.153
4062.96,3794.305
4064.59,3724.054
4066.23,3928.682
4067.86,4393.688
4069.5,4473.556
4071.13,4395.551
4072.76,4238.181
4074.4,4377.614
4076.03,4552.944
4077.67,3931.6
4079.3,4115.675
4080.93,4609.125
4082.57,4294.512
4084.2,4200.271
4085.84,4566.928
4087.47,4582.899
4089.1,4550.417
4090.74,4289.172
4092.37,4139.58
4094.01,3947.597
4095.64,4102.084
4097.27,4771.065
4098.91,4313.565
4100.54,3894.399
4102.17,4479.466
4103.81,4546.342
4105.44,4247.081
4107.07,4480.709
4108.71,3847.026
4110.34,3799.221
4111.98,3793.072
4113.61,4271.882
4115.24,4359.237
4116.88,4530.522
4118.51,4192.621
4120.15,4264.924
4121.78,4572.375
4123.41,4804.271
4125.05,4309.907
4126.68,4523.415
4128.31,4491.599
4129.95,4175.664
4131.58,4281.832
4133.22,4636.622
4134.85,4152.698
4136.48,4221.905
4138.12,4540.621
4139.75,4365.414
4141.39,4513.109
4143.02,4591.175
4144.65,4515.203
4146.29,4783.283
4147.92,4961.263
4149.56,4453.352
4151.19,4814.194
4152.82,4966.227
4154.46,4871.399
4156.09,4552.874
4157.73,4185.003
4159.36,4570.533
4160.99,4540.188
4162.63,4921.222
4164.26,4476.59
4165.89,4791.936
4167.53,5122.873
4169.16,4997.721
4170.8,5054.918
4172.43,4464.355
4174.06,4732.186
4175.7,4880.096
4177.33,4917.119
4178.97,4814.709
4180.6,4990.565
4182.23,4707.691
4183.87,4676.707
4185.5,4744.753
4187.13,4413.29
4188.77,4533.081
4190.4,4935.775
4192.04,4861.26
4193.67,4887.907
4195.3,4762.053
4196.94,4782.853
4198.57,4852.501
4200.2,4833.385
4201.84,4896.613
4203.47,4937.085
4205.11,4694.685
4206.74,4814.54
4208.37,4839.186
4210.01,4514.244
4211.64,4471.427
4213.27,4377.551
4214.91,4702.687
4216.54,4509.056
4218.18,4624.489
4219.81,4907.095
4221.44,4683.433
4223.08,4563.411
4224.71,4635.29
4226.35,4444.464
4227.98,4812.833
4229.61,4855.87
4231.25,4803.863
4232.88,4508.191
4234.52,4500.704
4236.15,4391.635
4237.78,4202.228
4239.42,4510.233
4241.05,4485.193
4242.69,4181.588
4244.32,4184.978
4245.95,4184.098
4247.59,4325.205
4249.22,4522.54
4250.85,4690.249
4252.49,4588.187
4254.12,4317.202
4255.76,5121.172
4257.39,4536.537
4259.02,4567.039
4260.66,4578.501
4262.29,4451.244
4263.93,4304.212
4265.56,4115.684
4267.19,4563.441
4268.83,4729.612
4270.46,4341.269
4272.09,4370.002
4273.73,4739.976
4275.36,4921.053
4277,5025
4278.63,4638.742
4280.26,4753.301
4281.9,4739.179
4283.53,4925.705
4285.16,4893.513
4286.8,4832.93
4288.43,4458.06
4290.07,4383.417
4291.7,4674.056
4293.33,4480.876
4294.97,4100.628
4296.6,4178.99
4298.24,4313.952
4299.87,4676.286
4301.5,4829.348
4303.14,4637.173
4304.77,4426.156
4306.4,4430.573
4308.04,4890.063
4309.67,4928.958
4311.31,4596.839
4312.94,4883.636
4314.57,4996.458
4316.21,4592.19
4317.84,4956.048
4319.48,4689.153
4321.11,4452.311
4322.74,4689.48
4324.38,4877.935
4326.01,4863.582
4327.65,4711.406
4329.28,4879.969
4330.91,4771.419
4332.55,5055.967
4334.18,5297.475
4335.81,4757.715
4337.45,4925.274
4339.08,4838.195
4340.72,4788.591
4342.35,4656.47
4343.98,4869.443
4345.62,4731.215
4347.25,5006.23
4348.89,5022.554
4350.52,4736.726
4352.15,4933.345
4353.79,4941.629
4355.42,5012.082
4357.05,4884.347
4358.69,4817.667
4360.32,5045.255
4361.96,5116.433
4363.59,4695.415
4365.22,4774.152
4366.86,4761.875
4368.49,4550.942
4370.12,4435.871
4371.76,4480.786
4373.39,4580.387
4375.03,4425.787
4376.66,4502.429
4378.29,4661.464
4379.93,4992.787
4381.56,5055.291
4383.2,5680.54
4384.83,5760.261
4386.46,5740.101
4388.1,5923.067
4389.73,6054.036
4391.36,5815.403
4393,5771.875
4394.63,5594.578
4396.27,6048.523
4397.9,6112.818
4399.53,5935.634
4401.17,6004.051
4402.8,6371.914
4404.44,6952.82
4406.07,6816.444
4407.7,6969.698
4409.34,6250.57
4410.97,6259.957
4412.6,6561.329
4414.24,6600.669
4415.87,6660.83
4417.51,6435.492
4419.14,6266.32
4420.77,6171.94
4422.41,5964.799
4424.04,6139.612
4425.68,6496.919
4427.31,6741.817
4428.94,6327.997
4430.58,6709.286
4432.21,7333.285
4433.85,7115.149
4435.48,6749.234
4437.11,6551.143
4438.75,6501.482
4440.38,6670.849
4442.02,6431.24
4443.65,6382.455
4445.28,6451.995
4446.92,6326.966
4448.55,6478.57
4450.18,6045.827
4451.82,5759.191
4453.45,5618.427
4455.09,5766.391
4456.72,5800.177
4458.35,5813.825
4459.99,5907.712
4461.62,6073.13
4463.25,5984.547
4464.89,6001.043
4466.52,5733.912
4468.16,5711.545
4469.79,5836.183
4471.42,5717.238
4473.06,5817.023
4474.69,5641.075
4476.32,5653.34
4477.96,5780.977
4479.59,5693.135
4481.23,6077.009
4482.86,6137.896
4484.49,5990.885
4486.13,5863.985
4487.76,5785.669
4489.4,5834.942
4491.03,5777.896
4492.66,5904.56
4494.3,5618.566
4495.93,5825.145
4497.56,5938.247
4499.2,5723.34
4500.83,5820.611
4502.47,6016.282
4504.1,5496.892
4505.73,5872.747
4507.37,5971.614
4509,5822.51
4510.64,5907.629
4512.27,5693.743
4513.9,5671.353
4515.54,6012.616
4517.17,5988.076
4518.81,6232.308
4520.44,6009.143
4522.07,5969.771
4523.71,5970.893
4525.34,6083.031
4526.98,5689.849
4528.61,5655.643
4530.24,5863.208
4531.88,5836.319
4533.51,5955.098
4535.14,5899.173
4536.78,5726.895
4538.41,5829.61
4540.05,6161.442
4541.68,6259.524
4543.31,6393.437
4544.95,6135.803
4546.58,6449.703
4548.22,6370.279
4549.85,6384.688
4551.48,6267.106
4553.12,6137.765
4554.75,6310.397
4556.38,6164.222
4558.02,6157.89
4559.65,6383.048
4561.29,6416.338
4562.92,6237.522
4564.55,6118.756
4566.19,6152.589
4567.82,6539.521
4569.45,6595.463
4571.09,6326.148
4572.72,6196.43
4574.36,6467.519
4575.99,6636.191
4577.62,6574.321
4579.26,6383.261
4580.89,6334.418
4582.52,6670.713
4584.16,6621.645
4585.79,6533.154
4587.43,6357.903
4589.06,6528.635
4590.69,6955.171
4592.33,6748.197
4593.96,6413.529
4595.6,6375.97
4597.23,6215.807
4598.86,6129.328
4600.5,6365.786
4602.13,6414.275
4603.77,6424.932
4605.4,6117.348
4607.03,6428.518
4608.67,6564.467
4610.3,6303.194
4611.94,6289.081
4613.57,6405.112
4615.2,6474.796
4616.84,6677.638
4618.47,6347.053
4620.1,6248.774
4621.74,6545.734
4623.37,6625.712
4625.01,6671.277
4626.64,6715.617
4628.27,6903.862
4629.91,6767.34
4631.54,6854.255
4633.18,6892.395
4634.81,6502.272
4636.44,6743.68
4638.08,6539.416
4639.71,6595.314
4641.34,7087.202
4642.98,7034.812
4644.61,6589.084
4646.25,6755.474
4647.88,6842.381
4649.51,6627.209
4651.15,6733.66
4652.78,6642.333
4654.41,6502.906
4656.05,6503.841
4657.68,6687.9
4659.32,6742.426
4660.95,6788.847
4662.58,6883.752
4664.22,6864.178
4665.85,6828.018
4667.49,6811.677
4669.12,6302.599
4670.75,6281.913
4672.39,6635.629
4674.02,6750.669
4675.65,6693.379
4677.29,6618.96
4678.92,6800.902
4680.56,6764.852
4682.19,6954.324
4683.82,7291.949
4685.46,7102.183
4687.09,6835.41
4688.73,6898.001
4690.36,7159.352
4691.99,7277.825
4693.63,6788.448
4695.26,6771.765
4696.9,6973.408
4698.53,7054.054
4700.16,7029.459
4701.8,6769.057
4703.43,7114.279
4705.06,7039.295
4706.7,6852.808
4708.33,6987.728
4709.97,7014.513
4711.6,7030.985
4713.23,6814.652
4714.87,6591.246
4716.5,6705.631
4718.14,6725.893
4719.77,6863.459
4721.4,6692.68
4723.04,6686.531
4724.67,6491.976
4726.3,6634.657
4727.94,6736.591
4729.57,6925.297
4731.21,7254.669
4732.84,7067.77
4734.47,7277.051
4736.11,6939.578
4737.74,6586.41
4739.38,6879.874
4741.01,6703.308
4742.64,6546.157
4744.28,6410.202
4745.91,6857.224
4747.54,6730.852
4749.18,6521.656
4750.81,7014.792
4752.45,7036.134
4754.08,7008.776
4755.71,7126.842
4757.35,7212.169
4758.98,7180.162
4760.61,7304.228
4762.25,7250.979
4763.88,7109.771
4765.52,7106.767
4767.15,7056.416
4768.78,7042.151
4770.42,6859.511
4772.05,7063.748
4773.69,6856.035
4775.32,6582.885
4776.95,6743.349
4778.59,6565.157
4780.22,6606.173
4781.85,6714.895
4783.49,6788.759
4785.12,6559.323
4786.76,6690.565
4788.39,6717.524
4790.02,6811.744
4791.66,7070.121
4793.29,6972.606
4794.93,6886.755
4796.56,6952.638
4798.19,7076.307
4799.83,7191.147
4801.46,7028.284
4803.1,6800.266
4804.73,6940.826
4806.36,6804.668
4808,6882.264
4809.63,6912.9
4811.26,6902.659
4812.9,6906.965
4814.53,7113.966
4816.17,6856.079
4817.8,7056.912
4819.43,7422.483
4821.07,6924.374
4822.7,6906.979
4824.34,6681.046
4825.97,7025.346
4827.6,7123.534
4829.24,6754.545
4830.87,6852.701
4832.5,7206.912
4834.14,7148.083
4835.77,6874.641
4837.41,6825.022
4839.04,7150.091
4840.67,6962.576
4842.31,6743.853
4843.94,7134.462
4845.57,7065.335
4847.21,6736.285
4848.84,7145.181
4850.48,7020.087
4852.11,7184.101
4853.74,7200.818
4855.38,7348.313
4857.01,7195.74
4858.65,6901.438
4860.28,6979.159
4861.91,7193.461
4863.55,7117.427
4865.18,6771.292
4866.81,7066.448
4868.45,7138.522
4870.08,7608.635
4871.72,7730.687
4873.35,7572.215
4874.98,7361.867
4876.62,7501.931
4878.25,7826.316
4879.89,7479.52
4881.52,7491.558
4883.15,7717.716
4884.79,7863.081
4886.42,7691.386
4888.06,7587.372
4889.69,7817.524
4891.32,7805.97
4892.96,7749.181
4894.59,8141.303
4896.23,7986.309
4897.86,8069.741
4899.49,8483.139
4901.13,8008.878
4902.76,8537.414
4904.39,8547.884
4906.03,8558.899
4907.66,8678.012
4909.3,8786.581
4910.93,8886.263
4912.56,8897.625
4914.2,8871.089
4915.83,9334.548
4917.46,9570.854
4919.1,9170.573
4920.73,9469.244
4922.37,9232.604
4924,9345.884
4925.63,9709.568
4927.27,9816.842
4928.9,10128.88
4930.53,10089.34
4932.17,10346.88
4933.8,10928.53
4935.44,10803.82
4937.07,11224.25
4938.7,10861.45
4940.34,10828.77
4941.97,10492.14
4943.61,10961.45
4945.24,10868.02
4946.87,10535.33
4948.51,10468.23
4950.14,9946.404
4951.77,9897.425
4953.41,10317.3
4955.04,10326.3
4956.68,9815.904
4958.31,9648.882
4959.94,9344.319
4961.58,9591.521
4963.21,9570.359
4964.85,9671.18
4966.48,9531.35
4968.11,9235.634
4969.75,9677.058
4971.38,9846.784
4973.02,9934.73
4974.65,10197.02
4976.28,10099.58
4977.92,10043.1
4979.55,9929.753
4981.19,9565.638
4982.82,10054.86
4984.45,9401.479
4986.09,9301.74
4987.72,9228.06
4989.35,9270.405
4990.99,9179.343
4992.62,8530.583
4994.26,8828.994
4995.89,8319.39
4997.52,8107.27
4999.16,7898.056
5000.79,8007.431
5002.43,7889.287
5004.06,7799.311
5005.69,8522.4
5007.33,8326.996
5008.96,8085.562
5010.59,8292.702
5012.23,8124.61
5013.86,7982.854
5015.5,7886.804
5017.13,7890.543
5018.76,8031.497
5020.4,7715.799
5022.03,8014.419
5023.66,8363.878
5025.3,8679.418
5026.93,8688.551
5028.57,9041.241
5030.2,9433.013
5031.83,10378.42
5033.47,11339.83
5035.1,12170.81
5036.73,12428.98
5038.37,12215.67
5040,11560.13
5041.64,10980.95
5043.27,10074.37
5044.9,9641.359
5046.54,9089.328
5048.17,8587.753
5049.81,8207.079
5051.44,8054.349
5053.07,7762.171
5054.71,7529.046
5056.34,7728.038
5057.98,7578.515
5059.61,7285.257
5061.24,7235.914
5062.88,7376.007
5064.51,7559.228
5066.15,7557.634
5067.78,7656.962
5069.41,7997.115
5071.05,7989.655
5072.68,8403.88
5074.31,8771.476
5075.95,9432.399
5077.58,10700.09
5079.22,12724.1
5080.85,15347.03
5082.48,18496.46
5084.12,20203.93
5085.75,21357.69
5087.39,21640.09
5089.02,20091.98
5090.65,17237.3
5092.29,14388.83
5093.92,12382.9
5095.55,10802.11
5097.19,9455.073
5098.82,8816.264
5100.46,8322.065
5102.09,7899.606
5103.72,7668.062
5105.36,7573.332
5106.99,7627.831
5108.62,7660.633
5110.26,7619.814
5111.89,7556.853
5113.53,7283.373
5115.16,6996.175
5116.79,7247.289
5118.43,7126.39
5120.06,7099.884
5121.7,6944.213
5123.33,6890.164
5124.96,7055.183
5126.6,7221.046
5128.23,7227.093
5129.86,7100.337
5131.5,7013.006
5133.13,7125.331
5134.77,7309.477
5136.4,7023.195
5138.03,7134.742
5139.67,7427.089
5141.3,7435.485
5142.94,7249.667
5144.57,6922.05
5146.2,6868.476
5147.84,7043.62
5149.47,7131.739
5151.1,7050.514
5152.74,6903.226
5154.37,6886.527
5156.01,6730.89
5157.64,6789.225
5159.27,6845.188
5160.91,6604.129
5162.54,6492.137
5164.18,6985.907
5165.81,6925.208
5167.44,6940.388
5169.08,6824.444
5170.71,6785.522
5172.35,6978.727
5173.98,7034.981
5175.61,6973.913
5177.25,7017.2
5178.88,6830.693
5180.51,6622.26
5182.15,6770.798
5183.78,6487.922
5185.42,6581.699
5187.05,6562.221
5188.68,6703.406
5190.32,6809.725
5191.95,6789.356
5193.59,6777.057
5195.22,6590.213
5196.85,6883.387
5198.49,7065.933
5200.12,6785.652
5201.75,7032.914
5203.39,6946.73
5205.02,6581.683
5206.66,6507.304
5208.29,6608.078
5209.92,6632.379
5211.56,6650.607
5213.19,6965.501
5214.82,6559.129
5216.46,6877.933
5218.09,7015.216
5219.73,6803.169
5221.36,6985.605
5222.99,6945.35
5224.63,6613.662
5226.26,6757.232
5227.9,6884.283
5229.53,7106.203
5231.16,6774.814
5232.8,6842.521
5234.43,6982.327
5236.06,6664.802
5237.7,6672.615
5239.33,6894.433
5240.97,7131.055
5242.6,7128.789
5244.23,6894.168
5245.87,6767.734
5247.5,6785.826
5249.14,6514.054
5250.77,6553.907
5252.4,6438.667
5254.04,6589.543
5255.67,6421.521
5257.31,6396.921
5258.94,6678.002
5260.57,6660.299
5262.21,6543.759
5263.84,6520.628
5265.48,6510.661
5267.11,6558.729
5268.74,6325.699
5270.38,6718.322
5272.01,7114.55
5273.64,7322.354
5275.28,6999.878
5276.91,6934.983
5278.55,6955.061
5280.18,7297.929
5281.81,7408.853
5283.45,7326.156
5285.08,6992.062
5286.71,6773.827
5288.35,7129.536
5289.98,7127.827
5291.62,6841.952
5293.25,6997.053
5294.88,7144.901
5296.52,7252.264
5298.15,7284.999
5299.78,7160.426
5301.42,7274.322
5303.05,7150.98
5304.69,7094.659
5306.32,6844.121
5307.95,6824.849
5309.59,6887.345
5311.22,6896.701
5312.86,6967.791
5314.49,6992.407
5316.12,7045.695
5317.76,7185.108
5319.39,7178.172
5321.02,7268.768
5322.66,7260.894
5324.29,7187.672
5325.93,7177.959
5327.56,7036.149
5329.19,7381.811
5330.83,7289.405
5332.46,6908.706
5334.1,7212.55
5335.73,7263.5
5337.36,7231.378
5339,7030.879
5340.63,7019.865
5342.27,7313.047
5343.9,7517.516
5345.53,7021.953
5347.17,6883.836
5348.8,6519.646
5350.44,6685.811
5352.07,6815.006
5353.7,7075.051
5355.34,7130.333
5356.97,6981.233
5358.6,7173.421
5360.24,7289.631
5361.87,7419.756
5363.51,7377.79
5365.14,7258.19
5366.77,7230.472
5368.41,7297.287
5370.04,7499.865
5371.68,7771.012
5373.31,7652.954
5374.94,7334.325
5376.58,7486.451
5378.21,7372.161
5379.84,7351.089
5381.48,7593.292
5383.11,7583.642
5384.75,7358.148
5386.38,7479.866
5388.01,7559.266
5389.65,7616.636
5391.28,7674.521
5392.91,7535.622
5394.55,7646.508
5396.18,7849.319
5397.82,7575.261
5399.45,7269.955
5401.08,7507.376
5402.72,7625.914
5404.35,7647.487
5405.98,7521.005
5407.62,7628.924
5409.25,7422.795
5410.89,7322.675
5412.52,6990.749
5414.15,7038.764
5415.79,7175.44
5417.42,7003.308
5419.06,7380.373
5420.69,7543.106
5422.32,7086.712
5423.96,7282.307
5425.59,7365.305
5427.23,7387.358
5428.86,7350.707
5430.49,7447.953
5432.13,7347.556
5433.76,7736.661
5435.4,7749.614
5437.03,7577.066
5438.66,7522.164
5440.3,7613.964
5441.93,7728.406
5443.56,7645.204
5445.2,7931.321
5446.83,7775.06
5448.47,7687.498
5450.1,7399.112
5451.73,7298.939
5453.37,7422.749
5455,7091.78
5456.64,7075.769
5458.27,7366.026
5459.9,7203.352
5461.54,7452.656
5463.17,7515.384
5464.8,7380.738
5466.44,7446.063
5468.07,7494.434
5469.71,7264.663
5471.34,7337.75
5472.97,7375.687
5474.61,7196.195
5476.24,7401.091
5477.88,7196.133
5479.51,7080.804
5481.14,6977.292
5482.78,7170.614
5484.41,7060.853
5486.04,7105.578
5487.68,7236.417
5489.31,7131.825
5490.95,7206.993
5492.58,6991.345
5494.21,6886.322
5495.85,7093.794
5497.48,7290.931
5499.11,7294.292
5500.75,7360.037
5502.38,7389.826
5504.02,7442.183
5505.65,7613.675
5507.28,7393.745
5508.92,7170.146
5510.55,7546.91
5512.19,7294.042
5513.82,7585.457
5515.45,7612.441
5517.09,7242.558
5518.72,7124.373
5520.35,7503.413
5521.99,7241.615
5523.62,7372.771
5525.26,7517.847
5526.89,7547.417
5528.52,7407.951
5530.16,7472.708
5531.79,7452.49
5533.43,7457.011
5535.06,7433.013
5536.69,7074.903
5538.33,7161.995
5539.96,7223.284
5541.6,7078.696
5543.23,7275.256
5544.86,7167.48
5546.5,7138.587
5548.13,7171.095
5549.76,7167.266
5551.4,7406.676
5553.03,7434.39
5554.67,7320.605
5556.3,7150.64
5557.93,7102.72
5559.57,7061.754
5561.2,7301.823
5562.84,7257.271
5564.47,7032.215
5566.1,7181.162
5567.74,7184.186
5569.37,7139.648
5571,7144.907
5572.64,7474.326
5574.27,7602.339
5575.91,7644.197
5577.54,7672.431
5579.17,7143.13
5580.81,7091.169
5582.44,6958.471
5584.07,6632.261
5585.71,6941.05
5587.34,7242.647
5588.98,7299.051
5590.61,7266.453
5592.24,7235.368
5593.88,7130.879
5595.51,7101.72
5597.15,7442.169
5598.78,7386.524
5600.41,7393.412
5602.05,7422.852
5603.68,7559.473
5605.31,7433.417
5606.95,7413.873
5608.58,7427.322
5610.22,7456.098
5611.85,7495.196
5613.48,7416.011
5615.12,7248.241
5616.75,7166.704
5618.39,7210.674
5620.02,7217.105
5621.65,7183.946
5623.29,7144.495
5624.92,7227.697
5626.56,7265.71
5628.19,7260.593
5629.82,7198.419
5631.46,7303.551
5633.09,7389.822
5634.73,7453.569
5636.36,7613.122
5637.99,7537.438
5639.63,7460.946
5641.26,7468.733
5642.89,7326.68
5644.53,7315.112
5646.16,7340.359
5647.8,7456.086
5649.43,7404.385
5651.06,7417.367
5652.7,7460.271
5654.33,7645.223
5655.96,7553.487
5657.6,7437.252
5659.23,7308.656
5660.87,7231.208
5662.5,7317.032
5664.13,7423.842
5665.77,7519.812
5667.4,7408.218
5669.03,7334.368
5670.67,7237.839
5672.3,7102.114
5673.94,6974.64
5675.57,7173.995
5677.2,7208.607
5678.84,7058.82
5680.47,6957.45
5682.11,7060.454
5683.74,7230.999
5685.37,7543.417
5687.01,7473.575
5688.64,7445.206
5690.27,7385.077
5691.91,7267.776
5693.54,7239.18
5695.18,7309.389
5696.81,7324.379
5698.44,7134.873
5700.08,7092.601
5701.71,7223.005
5703.35,7342.59
5704.98,7287.206
5706.61,7414.55
5708.25,7428.412
5709.88,7401.453
5711.52,7423.986
5713.15,7314.547
5714.78,7293.17
5716.42,7272.215
5718.05,6930.371
5719.69,7221.215
5721.32,7282.32
5722.95,7182.083
5724.59,7026.721
5726.22,7263.141
5727.85,7438.23
5729.49,7567.918
5731.12,7589.657
5732.76,7389.435
5734.39,7259.006
5736.02,7246.294
5737.66,7150.196
5739.29,7145.684
5740.93,7132.332
5742.56,7101.167
5744.19,7136.452
5745.83,7283.782
5747.46,7380.499
5749.09,7342.841
5750.73,6990.137
5752.36,7092.889
5753.99,7258.722
5755.63,7353.255
5757.26,7212.602
5758.9,7335.434
5760.53,7489.378
5762.16,7411.082
5763.8,7356.716
5765.43,7464.514
5767.07,7591.142
5768.7,7262.331
5770.33,7083.021
5771.97,7106.732
5773.6,7240.229
5775.23,7328.837
5776.87,7343.185
5778.5,7431.63
5780.14,7587.46
5781.77,7304.67
5783.4,7229.137
5785.04,7419.344
5786.67,7990.841
5788.31,7709.554
5789.94,7544.429
5791.57,7463.653
5793.21,7540.155
5794.84,7297.472
5796.48,7215.123
5798.11,7220.871
5799.74,7443.514
5801.38,7633.676
5803.01,7489.37
5804.65,7382.571
5806.28,7646.834
5807.91,7707.218
5809.55,7742.553
5811.18,7806.215
5812.81,8141.082
5814.45,7665.279
5816.08,7688.971
5817.72,7848.419
5819.35,7569.434
5820.98,7824.743
5822.62,7833.009
5824.25,7695.357
5825.89,7735.257
5827.52,7685.206
5829.15,7899.455
5830.79,8316.16
5832.42,7660.789
5834.05,7773.688
5835.69,7846.672
5837.32,7876.546
5838.96,7857.025
5840.59,8010.249
5842.22,7996.083
5843.86,7712.889
5845.49,7883.32
5847.12,7943.427
5848.76,7953.714
5850.39,7912.239
5852.03,7908.403
5853.66,7848.598
5855.29,7771.411
5856.93,7695.065
5858.56,7634.874
5860.19,7756.622
5861.83,7815.586
5863.46,7408.493
5865.1,7640.679
5866.73,7941.326
5868.36,8213.834
5870,8040.705
5871.63,7611.125
5873.27,7420.331
5874.9,7327.364
5876.53,7286.838
5878.17,7435.941
5879.8,7596.351
5881.44,7752.712
5883.07,7592.146
5884.7,7630.144
5886.34,7694.766
5887.97,7784.114
5889.6,7993.889
5891.24,7814.043
5892.87,7703.148
5894.51,7729.062
5896.14,7773.895
5897.77,7853.367
5899.41,7836.62
5901.04,7639.499
5902.68,7933.082
5904.31,8003.506
5905.94,8020.934
5907.58,8013.064
5909.21,8184.176
5910.85,8097.852
5912.48,7929.871
5914.11,7657.114
5915.75,8028.639
5917.38,8108.214
5919.01,8125.303
5920.65,8402.508
5922.28,8113.021
5923.92,8157.645
5925.55,8335.081
5927.18,8482.931
5928.82,8413.939
5930.45,8297.758
5932.09,8144.905
5933.72,8336.065
5935.35,8123.771
5936.99,8221.563
5938.62,8612.761
5940.25,8710.359
5941.89,8392.044
5943.52,8151.566
5945.16,8029.55
5946.79,8303.789
5948.42,8592
5950.06,8669.184
5951.69,8370.456
5953.32,8162.703
5954.96,8243.944
5956.59,8390.954
5958.23,8684.407
5959.86,8605.857
5961.49,8642.987
5963.13,8736.613
5964.76,9017.251
5966.4,9147.535
5968.03,8907.237
5969.66,8643.723
5971.3,8988.226
5972.93,8627.362
5974.56,8672.854
5976.2,8838.342
5977.83,8592.142
5979.47,8231.837
5981.1,7609.115
5982.73,6778.089
5984.37,5869.536
5986,5964.23
5987.64,6224.721
5989.27,6627.772
5990.9,6820.935
5992.54,7081.989
5994.17,7489.955
5995.81,8118.249
5997.44,8212.082
5999.07,8246.358
6000.71,8373.919
6002.34,8704.4
6003.98,8323.274
6005.61,8536.994
6007.24,8594.356
6008.88,8176.982
6010.51,8267.648
6012.14,8423.269
6013.78,8504.019
6015.41,8305.651
6017.05,8324.596
6018.68,8198.623
6020.31,8078.017
6021.95,8259.324
6023.58,8169.53
6025.21,8109.449
6026.85,8075.564
6028.48,8290.266
6030.12,8357.538
6031.75,8243.34
6033.38,8056.755
6035.02,8688.483
6036.65,8290.955
6038.28,8128.9
6039.92,8121.638
6041.55,8297.895
6043.19,8272.213
6044.82,8183.348
6046.45,8017.186
6048.09,7799.844
6049.72,8033.394
6051.36,8230.535
6052.99,8398.707
6054.62,8176.279
6056.26,8189.66
6057.89,8174.01
6059.52,8066.42
6061.16,7838.54
6062.79,8018.097
6064.43,8213.46
6066.06,8324.702
6067.69,8071.5
6069.33,8069.182
6070.96,8109.108
6072.6,8151.978
6074.23,7998.325
6075.86,7974.972
6077.5,7977.936
6079.13,7901.355
6080.77,8079.794
6082.4,8179.796
6084.03,8232.67
6085.67,8304.539
6087.3,8238.986
6088.94,8151.898
6090.57,8035.37
6092.2,8223.05
6093.84,8172.219
6095.47,8057.27
6097.1,7864.829
6098.74,7983.638
6100.37,7929.965
6102.01,7968.602
6103.64,8176.778
6105.27,7858.386
6106.91,7774.302
6108.54,7758.025
6110.18,7870.336
6111.81,7837.442
6113.44,7752.92
6115.08,7691.115
6116.71,7746.001
6118.34,7771.171
6119.98,7774.699
6121.61,7795.493
6123.24,7925.825
6124.88,7784.29
6126.51,7794.989
6128.15,7853.759
6129.78,8018.333
6131.41,8051.979
6133.05,7973.78
6134.68,7831.589
6136.32,7687.792
6137.95,7846.66
6139.58,7918.886
6141.22,7929.216
6142.85,7813.539
6144.48,7971.553
6146.12,8082.865
6147.75,8164.762
6149.39,8148.328
6151.02,8033.418
6152.65,7932.833
6154.29,7870.366
6155.92,7726.383
6157.56,7768.364
6159.19,7711.253
6160.82,7468.314
6162.46,7733.04
6164.09,7944.364
6165.73,8101.371
6167.36,8191.75
6168.99,8288.901
6170.63,8336.252
6172.26,8283.061
6173.9,7926.063
6175.53,8077.642
6177.16,8137.241
6178.8,8177.824
6180.43,8325.388
6182.06,8374.231
6183.7,8406.914
6185.33,8392.959
6186.97,8050.545
6188.6,7882.947
6190.23,7895.115
6191.87,7982.986
6193.5,7938.497
6195.14,7866.341
6196.77,7892.843
6198.4,7977.826
6200.04,7817.688
6201.67,7720.578
6203.3,7771.168
6204.94,7983.117
6206.57,8040.911
6208.2,7814.752
6209.84,7668.495
6211.47,7679.057
6213.11,7769.74
6214.74,7843.407
6216.38,7872.439
6218.01,7839.833
6219.64,7740.982
6221.28,7716.869
6222.91,7743.56
6224.54,7919.25
6226.18,7786.138
6227.81,7723.882
6229.44,7718.814
6231.08,7984.405
6232.71,7778.974
6234.35,7665.79
6235.98,7616.89
6237.61,7935.609
6239.25,7943.287
6240.88,7906.302
6242.52,7820.738
6244.15,7645.813
6245.78,7726.22
6247.42,7808.896
6249.05,7883.485
6250.69,7705.751
6252.32,7656.957
6253.95,7642.11
6255.59,7660.249
6257.22,7561.661
6258.85,7562.458
6260.49,7555.07
6262.12,7558.576
6263.76,7421.338
6265.39,7428.405
6267.02,7495.339
6268.66,7685.776
6270.29,7590.068
6271.93,7527.925
6273.56,7498.97
6275.19,7596.207
6276.83,7238.566
6278.46,7136.705
6280.1,7142.781
6281.73,7431.931
6283.36,7498.391
6285,7556.015
6286.63,7574.801
6288.26,7369.243
6289.9,7351.003
6291.53,7386.16
6293.17,7412.146
6294.8,7191.583
6296.43,7648.045
6298.07,8087.923
6299.7,8502.441
6301.34,8103.033
6302.97,7869.226
6304.6,7675.409
6306.24,7498.875
6307.87,7380.105
6309.5,7479.299
6311.14,7494.965
6312.77,7428.205
6314.41,7620.08
6316.04,7664.107
6317.67,7613.481
6319.31,7421.1
6320.94,7436.167
6322.57,7398.755
6324.21,7368.804
6325.84,7408.437
6327.48,7539.601
6329.11,7600.408
6330.74,7644.666
6332.38,7694.23
6334.01,7615.034
6335.65,7584.478
6337.28,7585.7
6338.91,7778.211
6340.55,7739.462
6342.18,7596.133
6343.81,7398.217
6345.45,7253.547
6347.08,7403.797
6348.72,7486.46
6350.35,7502.395
6351.98,7217.922
6353.62,7175.884
6355.25,7166.32
6356.89,7167.272
6358.52,7413.186
6360.15,7630.408
6361.79,7811.604
6363.42,7964.68
6365.06,7662.635
6366.69,7629.018
6368.32,7613.552
6369.96,7621.938
6371.59,7501.022
6373.22,7618.695
6374.86,7707.083
6376.49,7716.367
6378.13,7599.411
6379.76,7646.046
6381.39,7714.081
6383.03,7803.783
6384.66,7820.36
6386.3,7752.738
6387.93,7666.723
6389.56,7670.056
6391.2,7748.674
6392.83,7871.271
6394.46,8052.212
6396.1,8601.248
6397.73,8704.18
6399.37,8704.92
6401,8646.855
6402.63,8801.234
6404.27,8822.263
6405.9,8698.48
6407.53,8439.362
6409.17,8089.407
6410.8,8022.621
6412.44,8044.33
6414.07,8153.386
6415.7,8036.229
6417.34,7987.588
6418.97,7961.027
6420.61,7996.619
6422.24,7717.074
6423.87,7707.911
6425.51,7729.37
6427.14,7799.61
6428.77,7865.27
6430.41,7816.975
6432.04,7803.58
6433.68,7965.657
6435.31,8100.476
6436.94,7958.998
6438.58,7791.399
6440.21,7852.463
6441.85,8053.369
6443.48,8055.77
6445.11,7968.44
6446.75,7784.142
6448.38,7860.254
6450.02,8006.081
6451.65,8157.907
6453.28,8090.674
6454.92,8147
6456.55,8074.123
6458.19,7905.56
6459.82,7952.526
6461.45,8138.956
6463.09,8307.519
6464.72,8472.7
6466.35,8460.875
6467.99,8294.094
6469.62,8211.409
6471.26,8271.586
6472.89,8521.131
6474.52,8515.093
6476.16,8502.213
6477.79,8522.706
6479.42,8292.086
6481.06,8292.2
6482.69,8281.178
6484.33,8202.761
6485.96,8303.016
6487.59,8230.687
6489.23,8108.177
6490.86,7959.392
6492.49,7964.896
6494.13,7972.914
6495.76,7984.492
6497.4,8106.422
6499.03,8175.192
6500.66,8236.508
6502.3,8289.782
6503.93,8432.938
6505.57,8236.393
6507.2,8292.1
6508.83,8472.492
6510.47,8250.394
6512.1,8279.509
6513.73,8333.741
6515.37,8409.933
6517,8330.231
6518.64,8248.801
6520.27,8218.796
6521.9,8284.601
6523.54,8673.639
6525.17,8736.092
6526.81,8661.388
6528.44,8391.962
6530.07,8683.91
6531.71,8611.911
6533.34,8539.474
6534.98,8597.105
6536.61,8787.545
6538.24,8838.057
6539.88,8821.993
6541.51,8667.312
6543.15,8791.863
6544.78,8891.926
6546.41,8964.135
6548.05,8995.611
6549.68,9030.49
6551.31,8999.611
6552.95,8932.876
6554.58,8903.229
6556.22,9061.525
6557.85,9185.123
6559.48,9273.928
6561.12,9353.921
6562.75,9308.443
6564.39,9437.184
6566.02,9692.325
6567.65,9514.515
6569.29,9531.226
6570.92,9632.745
6572.55,9834.758
6574.19,10134.11
6575.82,10084.85
6577.45,10079.1
6579.09,10181.97
6580.72,9808.16
6582.36,9981.482
6583.99,10161.56
6585.62,10314.85
6587.26,10604.02
6588.89,10759
6590.53,10889
6592.16,11062.05
6593.79,10853.17
6595.43,10985.75
6597.06,11174.05
6598.69,11333.81
6600.33,11424.89
6601.96,11582.64
6603.6,11787.76
6605.23,12205.95
6606.86,12623.92
6608.5,12923.75
6610.13,13173.76
6611.77,13711.97
6613.4,13948.01
6615.03,14323.72
6616.67,14786.36
6618.3,15051.37
6619.94,15325.67
6621.57,15747.85
6623.2,16338.87
6624.84,16981.93
6626.47,17203.44
6628.1,17407.02
6629.74,17688.67
6631.37,18340.15
6633.01,18564.36
6634.64,18865.69
6636.27,19487.06
6637.91,19916.91
6639.54,20041.02
6641.18,20126.14
6642.81,20329.76
6644.44,21193.32
6646.08,21498.58
6647.71,21844.43
6649.35,23052.65
6650.98,23062.66
6652.61,23261.35
6654.25,23592.86
6655.88,24613.83
6657.51,25261.97
6659.15,26049.43
6660.78,26960.45
6662.42,28829.67
6664.05,29891.39
6665.68,30342.7
6667.32,30379.66
6668.95,29853.67
6670.59,29394.19
6672.22,28985.67
6673.85,28601.56
6675.49,27813.37
6677.12,27382.2
6678.75,27124.4
6680.39,27165.68
6682.02,27614.98
6683.65,27504.66
6685.29,27381.82
6686.92,27332.66
6688.56,26496.11
6690.19,25801.19
6691.82,25118.67
6693.46,24495.86
6695.09,23646.01
6696.73,23089.61
6698.36,22445.09
6699.99,21335.06
6701.63,20931.46
6703.26,20476.13
6704.9,20106.43
6706.53,20601.51
6708.16,20465.26
6709.8,20459.6
6711.43,20451.43
6713.06,20045.55
6714.7,19646.85
6716.33,19635.69
6717.97,19782.54
6719.6,19314.79
6721.23,19207.31
6722.87,18974.21
6724.5,18563.11
6726.14,17959.13
6727.77,17458.49
6729.4,17046.22
6731.04,16712.84
6732.67,16020.91
6734.31,15538.98
6735.94,15209.51
6737.57,15140.33
6739.21,14491.84
6740.84,13952.02
6742.47,13480.3
6744.11,13163.54
6745.74,13123.11
6747.38,12759.53
6749.01,12387.86
6750.64,12174.63
6752.28,11871.86
6753.91,11815.04
6755.55,11738.31
6757.18,11345.31
6758.81,11068.14
6760.45,10933.95
6762.08,10841.68
6763.71,10835.93
6765.35,10704.39
6766.98,10610.96
6768.62,10499.52
6770.25,10264.09
6771.88,9985.721
6773.52,9885.691
6775.15,9897.001
6776.78,9937.311
6778.42,9623.253
6780.05,9461.814
6781.69,9448.816
6783.32,9446.303
6784.95,9451.538
6786.59,9475.049
6788.22,9562.734
6789.85,9384.774
6791.49,9207.398
6793.12,9123.025
6794.76,9275.838
6796.39,9320.191
6798.02,9185.777
6799.66,9053.644
6801.29,9037.315
6802.93,8818.004
6804.56,8666.572
6806.19,8620.639
6807.83,9070.016
6809.46,8686.018
6811.1,8619.81
6812.73,8685.776
6814.36,9011.091
6816,9449.846
6817.63,9582.919
6819.27,9561.222
6820.9,9564.373
6822.53,9681.725
6824.17,9708.788
6825.8,9655.431
6827.44,9539.356
6829.07,9474.214
6830.7,9387.898
6832.34,9267.26
6833.97,9584.527
6835.6,9491.712
6837.24,9333.147
6838.87,9116.634
6840.51,8733.254
6842.14,8852.09
6843.77,8867.812
6845.41,8648.234
6847.04,8385.855
6848.67,8254.979
6850.31,8154.515
6851.94,8127.248
6853.58,7978.981
6855.21,7840.498
6856.84,7736.88
6858.48,7786.008
6860.11,7549.403
6861.74,7510.061
6863.38,7472.436
6865.01,7147.918
6866.65,7275.117
6868.28,7246.738
6869.91,7143.026
6871.55,7121.634
6873.18,7045.339
6874.82,6986.285
6876.45,6921.589
6878.08,6735.871
6879.72,6757.035
6881.35,6855.993
6882.98,7031.431
6884.62,7095.896
6886.25,7026.835
6887.89,6882.439
6889.52,6656.091
6891.15,7228.433
6892.79,7141.279
6894.42,7014.135
6896.06,6873.508
6897.69,6792.031
6899.32,6776.116
6900.96,6772.162
6902.59,6815.849
6904.23,7178.701
6905.86,7190.309
6907.49,7119.245
6909.13,6998.689
6910.76,6971.95
6912.4,6853.737
6914.03,6750.936
6915.66,6945.171
6917.3,7100.867
6918.93,6965.046
6920.56,6763.81
6922.2,7080.794
6923.83,6998.865
6925.47,6883.599
6927.1,6736.507
6928.73,6730.833
6930.37,6553.881
6932,6589.345
6933.64,6774.51
6935.27,6766.96
6936.9,6848.623
6938.54,6913.663
6940.17,6969.249
6941.8,6562.667
6943.44,6674.87
6945.07,6754.012
6946.7,6779.368
6948.34,6721.687
6949.97,6648.443
6951.61,6553.201
6953.24,6430.373
6954.88,6497.524
6956.51,6585.794
6958.14,6645.675
6959.78,6618.786
6961.41,6497.107
6963.04,6541.276
6964.68,6635.146
6966.31,6839.103
6967.94,6741.531
6969.58,6669.443
6971.21,6617.586
6972.85,6746.425
6974.48,6923.487
6976.11,6942.955
6977.75,6871.42
6979.38,6830.588
6981.02,6843.481
6982.65,6758.044
6984.28,6591.996
6985.92,6564.341
6987.55,6417.303
6989.19,6364.729
6990.82,6403.309
6992.45,6539.898
6994.09,6497.371
6995.72,6512.856
6997.35,6643.228
6998.99,6502.872
7000.62,6402.748
7002.26,6388.849
7003.89,6557.701
7005.52,6555.746
7007.16,6534.25
7008.79,6528.705
7010.43,6604.945
7012.06,6516.824
7013.69,6521.395
7015.33,6542.825
7016.96,6603.88
7018.6,6569.26
7020.23,6537.098
7021.86,6494.87
7023.5,6412.158
7025.13,6417.844
7026.76,6487.032
7028.4,6561.437
7030.03,6471.055
7031.67,6514.595
7033.3,6501.605
7034.93,6436.811
7036.57,6304.997
7038.2,6306.529
7039.84,6397.859
7041.47,6573.593
7043.1,6434.645
7044.74,6373.482
7046.37,6358.585
7048,6428.559
7049.64,6267.073
7051.27,6397.589
7052.9,6456.856
7054.54,6379.478
7056.17,6105.532
7057.81,6173.03
7059.44,6268.6
7061.07,6374.826
7062.71,6268.439
7064.34,6277.381
7065.98,6315.274
7067.61,6399.409
7069.24,6513.841
7070.88,6533.181
7072.51,6517.882
7074.15,6518.587
7075.78,6559.059
7077.41,6611.416
7079.05,6662.369
7080.68,6729.659
7082.31,6551.117
7083.95,6406.174
7085.58,6266.642
7087.22,6362.354
7088.85,6339.762
7090.48,6377.44
7092.12,6448.7
7093.75,6424.608
7095.39,6371.232
7097.02,6348.756
7098.65,6357.643
7100.29,6295.146
7101.92,6290.99
7103.56,6354.813
7105.19,6547.618
7106.82,6391.732
7108.46,6297.973
7110.09,6309.691
7111.72,6593.731
7113.36,6312.854
7114.99,6199.819
7116.63,6185.523
7118.26,6448.739
7119.89,6427.995
7121.53,6364.598
7123.16,6317.51
7124.8,6472.906
7126.43,6525.188
7128.06,6502.647
7129.7,6447.552
7131.33,6391.47
7132.96,6395.085
7134.6,6416.659
7136.23,6422.331
7137.87,6212.229
7139.5,6279.252
7141.13,6342.219
7142.77,6390.874
7144.4,6356.322
7146.03,6249.317
7147.67,6181.797
7149.3,6143.653
7150.94,6389.464
7152.57,6401.938
7154.2,6354.544
7155.84,6247.857
7157.47,6313.687
7159.1,6307.499
7160.74,6316.163
7162.37,6392.665
7164.01,6380.086
7165.64,6263.849
7167.27,6173.028
7168.91,6212.754
7170.54,6213.171
7172.18,6288.459
7173.81,6350.107
7175.44,6322.503
7177.08,6200.848
7178.71,6066.647
7180.35,5947.555
7181.98,6055.217
7183.61,6219.537
7185.25,6124.174
7186.88,5909.484
7188.52,5975.109
7190.15,6032.241
7191.78,6117.056
7193.42,6215.688
7195.05,6224.252
7196.69,6215.094
7198.32,6177.32
7199.95,6110.196
7201.59,6071.594
7203.22,5805.013
7204.85,5677.66
7206.49,5757.579
7208.12,5767.311
7209.76,5733.24
7211.39,5714.675
7213.02,5740.536
7214.66,5835.356
7216.29,5739.675
7217.92,5639.642
7219.56,5614.997
7221.19,5828.216
7222.83,5732.146
7224.46,5607.103
7226.09,5639.075
7227.73,5642.83
7229.36,5613.274
7230.99,5574.611
7232.63,5608.789
7234.26,5429.696
7235.9,5481.663
7237.53,5606.587
7239.16,5549.662
7240.8,5622.146
7242.43,5648.98
7244.07,5650.119
7245.7,5934.6
7247.33,5837.296
7248.97,5791.304
7250.6,5783.739
7252.23,5391.137
7253.87,5379.88
7255.5,5433.271
7257.14,5592.541
7258.77,5807.098
7260.4,5564.596
7262.04,5493.946
7263.67,5778.715
7265.31,5342.656
7266.94,5356.866
7268.57,5360.938
7270.21,5245.963
7271.84,5499.688
7273.48,5338.186
7275.11,5248.942
7276.74,5697.096
7278.38,5306.653
7280.01,5244.072
7281.65,5308.441
7283.28,5658.379
7284.91,5599.307
7286.55,5541.073
7288.18,5483.282
7289.81,5520.832
7291.45,5275.407
7293.08,5311.701
7294.72,5464.387
7296.35,5115.835
7297.98,5241.338
7299.62,5303.505
7301.25,5313.048
7302.89,5336.987
7304.52,5213.56
7306.15,5143.881
7307.79,5127.096
7309.42,5432.667
7311.05,5449.48
7312.69,5465.85
7314.32,5509.239
7315.95,5612.121
7317.59,5476.487
7319.22,5372.348
7320.86,5403.427
7322.49,5460.187
7324.12,5382.845
7325.76,5299.085
7327.39,5279.178
7329.03,5330.042
7330.66,5299.826
7332.29,5290.673
7333.93,5524.231
7335.56,5320.363
7337.19,5363.328
7338.83,5486.346
7340.46,5589.979
7342.1,5432.027
7343.73,5344.142
7345.36,5278.355
7347,5254.704
7348.63,5354.774
7350.27,5388.446
7351.9,5368.026
7353.53,5438.166
7355.17,5406.492
7356.8,5435.807
7358.44,5523.75
7360.07,5420.975
7361.7,5375.87
7363.34,5324.849
7364.97,5281.025
7366.6,5524.268
7368.24,5545.381
7369.87,5591.618
7371.51,5746.278
7373.14,5444.692
7374.77,5423.217
7376.41,5391.638
7378.04,5246.807
7379.68,5192.654
7381.31,5164.872
7382.94,5167.006
7384.58,5315.653
7386.21,5460.162
7387.85,5470.138
7389.48,5421.331
7391.11,5304.815
7392.75,5280.421
7394.38,5243.856
7396.01,5190.623
7397.65,5159.929
7399.28,5393.585
7400.91,5502.772
7402.55,5526.884
7404.18,5349.656
7405.82,5255.836
7407.45,5219.471
7409.09,5233.901
7410.72,5296.209
7412.35,5237.187
7413.99,5215.489
7415.62,5260.542
7417.25,5217.295
7418.89,5069.096
7420.52,5006.292
7422.15,5116.238
7423.79,5412.206
7425.42,5350.688
7427.06,5245.933
7428.69,5151.878
7430.32,5332.411
7431.96,5444.015
7433.59,5527.218
7435.23,5580.509
7436.86,5606.375
7438.49,5520.646
7440.13,5411.701
7441.76,5414.644
7443.4,5272.811
7445.03,5263.363
7446.66,5304.166
7448.3,5358.291
7449.93,5199.961
7451.56,5181.553
7453.2,5236.52
7454.83,5374.358
7456.47,5318.141
7458.1,5308.433
7459.73,5318.5
7461.37,5240.846
7463,5111.741
7464.64,5097.168
7466.27,5219.362
7467.9,5264.66
7469.54,5297.87
7471.17,5275.471
7472.81,5174.976
7474.44,5088.195
7476.07,5032.133
7477.71,5086.189
7479.34,5426.039
7480.97,5083.958
7482.61,5011.51
7484.24,4979.725
7485.88,4946.604
7487.51,5016.224
7489.14,5071.913
7490.78,5085.44
7492.41,4940.036
7494.05,5146.106
7495.68,5223.334
7497.31,5235.842
7498.95,5138.277
7500.58,5025.722
7502.21,4959.112
7503.85,4908.817
7505.48,4988.634
7507.12,4943.512
7508.75,4913.654
7510.38,4889.965
7512.02,5155.157
7513.65,4965.329
7515.28,4857.547
7516.92,4827.357
7518.55,4827.386
7520.19,4940.521
7521.82,5035.036
7523.45,5123.031
7525.09,4989.518
7526.72,4933.021
7528.35,4921.933
7529.99,5018.413
7531.62,4856.467
7533.26,4700.799
7534.89,4663.156
7536.52,5007.913
7538.16,4836.321
7539.79,4722.109
7541.43,4664.254
7543.06,4848.661
7544.69,4830.169
7546.33,4872.229
7547.96,4897.807
7549.6,4676.87
7551.23,4606.341
7552.86,4635.066
7554.5,4707.839
7556.13,4850.559
7557.77,4806.756
7559.4,4771.084
7561.03,4730.172
7562.67,4745.342
7564.3,4781.671
7565.93,4825.982
7567.57,4877.705
7569.2,4993.628
7570.84,5268.283
7572.47,5534.583
7574.1,5831.36
7575.74,5614.814
7577.37,5702.68
7579.01,6032.136
7580.64,6850.247
7582.27,6792.781
7583.91,7147.317
7585.54,7351.266
7587.17,7046.046
7588.81,19542.36
7590.44,0
7592.08,0
7593.71,0
7595.34,0
7596.98,0
