spectral_axis,intensity
3923.59,0
3925.22,0
3926.84,0
3928.46,0
3930.09,0
3931.71,0
3933.34,0
3934.96,0
3936.58,0
3938.21,0
3939.83,26186.3
3941.46,20616.02
3943.08,19745.98
3944.7,21287.05
3946.33,19841.17
3947.95,19341.32
3949.58,20014.66
3951.2,20121.69
3952.82,19869.62
3954.45,19617.84
3956.07,19235.68
3957.7,18628.16
3959.32,18839.54
3960.94,18513.07
3962.57,18523.4
3964.19,18623.07
3965.82,17933.54
3967.44,17040.34
3969.06,17188.46
3970.69,16847.55
3972.31,17522.31
3973.94,17770.75
3975.56,17134.09
3977.18,17933.45
3978.81,17804.6
3980.43,18968.88
3982.06,18743.63
3983.68,18770.89
3985.3,19244.94
3986.93,19139.95
3988.55,19430.12
3990.18,19734.41
3991.8,20065.29
3993.43,20938.23
3995.05,20655.37
3996.67,21163.73
3998.3,21183.46
3999.92,20877.13
4001.55,21383.66
4003.17,23008.35
4004.79,23448.24
4006.42,23812.13
4008.04,22952.7
4009.67,21916.51
4011.29,21044.27
4012.91,20899.1
4014.54,21099.12
4016.16,20387.22
4017.79,20847.12
4019.41,20199.33
4021.03,19997.42
4022.66,19511.27
4024.28,19681.32
4025.91,19697.72
4027.53,19748.49
4029.15,19631.23
4030.78,18412.2
4032.4,18420.25
4034.03,18519.83
4035.65,18571.06
4037.27,18383.99
4038.9,18581.18
4040.52,18356.08
4042.15,17881.7
4043.77,18007.75
4045.39,17902.46
4047.02,17725.4
4048.64,17906.76
4050.27,17858.79
4051.89,18134.65
4053.51,17570.56
4055.14,17672.76
4056.76,18007.3
4058.39,18667.51
4060.01,18252.4
4061.64,18478.97
4063.26,17821.08
4064.88,18113.05
4066.51,18098.98
4068.13,17766.01
4069.76,17228.31
4071.38,17309.76
4073,17023.6
4074.63,17060.62
4076.25,17502.59
4077.88,17839.94
4079.5,17475.54
4081.12,17799.75
4082.75,17824.72
4084.37,17392.21
4086,16947.88
4087.62,16840.22
4089.24,17598.85
4090.87,17323.06
4092.49,17276.83
4094.12,17683.85
4095.74,17276.77
4097.36,17232.35
4098.99,17822.32
4100.61,17298.43
4102.24,17932.63
4103.86,17991.52
4105.48,18685.84
4107.11,19269.98
4108.73,19481.72
4110.36,19020.25
4111.98,19108.75
4113.6,19270.53
4115.23,18711.3
4116.85,18730.35
4118.48,19113.62
4120.1,19341.17
4121.73,20373.48
4123.35,20342.37
4124.97,20533.02
4126.6,20502.28
4128.22,21064.22
4129.85,21413.89
4131.47,20916.94
4133.09,22305.45
4134.72,22035.68
4136.34,22006.93
4137.97,22684.85
4139.59,22895.74
4141.21,23983.77
4142.84,23498.98
4144.46,23115.14
4146.09,23678.25
4147.71,23114.11
4149.33,21542.03
4150.96,20906.99
4152.58,20971.45
4154.21,20196.02
4155.83,19916.7
4157.45,19696.99
4159.08,19218.25
4160.7,19572.77
4162.33,19197.87
4163.95,19068.58
4165.57,18913.53
4167.2,17926.31
4168.82,18154.84
4170.45,18087.08
4172.07,16960.15
4173.69,17384.46
4175.32,17055.57
4176.94,17204.14
4178.57,17076.79
4180.19,16847.93
4181.81,16903.97
4183.44,16878.96
4185.06,17219.22
4186.69,16523.24
4188.31,16511.69
4189.94,16569.53
4191.56,16923.34
4193.18,16640.97
4194.81,16158.06
4196.43,16437.21
4198.06,16612.27
4199.68,16869.63
4201.3,16693.95
4202.93,16590.6
4204.55,17025.44
4206.18,16394.66
4207.8,16181.26
4209.42,16789.9
4211.05,16187.85
4212.67,16513.72
4214.3,15548.23
4215.92,16102.94
4217.54,16340.6
4219.17,15997.82
4220.79,16417.92
4222.41,16004.14
4224.04,15542.58
4225.66,15961.83
4227.29,15899.67
4228.91,16055.38
4230.54,15534.09
4232.16,15573.23
4233.78,15876.91
4235.41,15869.34
4237.03,15880.16
4238.66,15386.84
4240.28,15266.65
4241.9,15264.46
4243.53,15756.71
4245.15,15575.56
4246.78,15222.79
4248.4,15665.48
4250.02,15366.54
4251.65,16058.51
4253.27,15918.21
4254.9,15858.95
4256.52,15810.53
4258.14,15929.27
4259.77,16348.48
4261.39,15523.8
4263.02,15924.86
4264.64,16078.01
4266.26,16016.41
4267.89,16225.47
4269.51,16295.05
4271.14,16312.38
4272.76,16741.85
4274.39,16471.22
4276.01,15697.28
4277.63,15976.4
4279.26,15904.96
4280.88,15976.02
4282.51,16090.69
4284.13,16311.04
4285.75,15932.63
4287.38,15943.52
4289,15868.52
4290.62,15297.86
4292.25,15768.06
4293.87,15593.16
4295.5,15799.45
4297.12,15750.63
4298.74,15532.14
4300.37,15559.14
4301.99,15456.16
4303.62,16066.96
4305.24,15993.42
4306.86,15975.76
4308.49,15836.43
4310.11,15195.27
4311.74,15183.74
4313.36,15382.35
4314.99,15439.69
4316.61,15823.8
4318.23,15761.8
4319.86,16065.57
4321.48,16032.86
4323.11,16251.93
4324.73,16168.05
4326.35,15882.82
4327.98,15945.69
4329.6,16112.08
4331.23,15916.81
4332.85,16161.54
4334.47,16349.39
4336.1,16146.29
4337.72,16204.79
4339.35,15693.58
4340.97,15631.63
4342.59,15526.85
4344.22,15898.27
4345.84,15968.39
4347.47,16230.98
4349.09,16385.65
4350.71,16520.87
4352.34,17337.73
4353.96,18004.18
4355.59,18260.04
4357.21,19275.81
4358.84,20040.89
4360.46,20405.49
4362.08,20620.08
4363.71,20174.18
4365.33,20333.92
4366.95,21409.45
4368.58,21500.82
4370.2,21713.19
4371.83,22488.81
4373.45,24468.34
4375.07,23968.65
4376.7,24206.39
4378.32,22845.17
4379.95,22939.64
4381.57,23215.69
4383.19,25596.99
4384.82,24817.19
4386.44,23828.66
4388.07,22874.83
4389.69,22627.82
4391.31,23342.04
4392.94,23267.33
4394.56,23119.9
4396.19,22825.19
4397.81,21906.48
4399.44,22180.47
4401.06,22201.99
4402.68,22274.22
4404.31,23771.6
4405.93,23004.25
4407.56,21728.29
4409.18,20768.58
4410.8,20132.56
4412.43,19425.87
4414.05,18414.65
4415.68,17589.43
4417.3,17329.42
4418.92,17172.32
4420.55,17105.37
4422.17,17072.27
4423.8,16467.07
4425.42,15859.82
4427.04,16341.68
4428.67,16965.77
4430.29,16576.66
4431.92,16632.93
4433.54,16546.94
4435.16,16288.36
4436.79,16294.94
4438.41,16515.25
4440.04,16657.27
4441.66,16362.32
4443.28,16173.84
4444.91,16053.45
4446.53,15787.06
4448.16,15711.56
4449.78,15841.43
4451.4,16252.62
4453.03,16566.14
4454.65,16562.07
4456.28,16182.58
4457.9,16035.26
4459.52,16134.36
4461.15,16132.39
4462.77,16076.98
4464.4,15773.86
4466.02,15970.18
4467.65,15622.15
4469.27,15647.03
4470.89,15836.71
4472.52,16150.28
4474.14,16034.92
4475.77,15408.24
4477.39,15440.89
4479.01,15550.57
4480.64,15890.69
4482.26,16261.54
4483.89,16315.01
4485.51,16440.65
4487.13,16215.78
4488.76,16490.25
4490.38,16533.1
4492.01,16296.97
4493.63,16256.21
4495.25,16572.08
4496.88,16329.11
4498.5,15944.44
4500.13,16056.49
4501.75,15934.83
4503.38,16079.54
4505,16432.02
4506.62,16276.3
4508.25,16489.55
4509.87,16894.99
4511.49,17148.05
4513.12,17184.07
4514.74,16606.82
4516.37,16719.91
4517.99,16715.22
4519.61,17137.32
4521.24,16780.73
4522.86,16421.29
4524.49,16767.46
4526.11,16845.78
4527.73,17220.02
4529.36,16999.37
4530.98,16997.79
4532.61,16767.6
4534.23,16897.07
4535.85,17009.68
4537.48,17150.48
4539.1,16891.24
4540.73,16799
4542.35,17097.12
4543.98,17363.85
4545.6,17149.02
4547.22,17237.65
4548.85,17474.8
4550.47,17428.29
4552.1,17563.17
4553.72,17824.83
4555.34,17572.12
4556.97,17568.92
4558.59,17457.24
4560.22,17310.05
4561.84,16882.04
4563.46,17043.54
4565.09,17016.69
4566.71,16863.82
4568.34,17128.26
4569.96,16885.79
4571.58,16205.46
4573.21,16583.2
4574.83,16789.22
4576.46,17097.96
4578.08,16903.56
4579.7,17179.47
4581.33,17503.9
4582.95,17861.98
4584.58,17696.97
4586.2,17092.12
4587.82,17265.24
4589.45,17357.01
4591.07,17536.69
4592.7,17540.41
4594.32,17434.5
4595.94,17457.1
4597.57,17160.35
4599.19,17369.51
4600.82,17403.75
4602.44,17407.94
4604.06,17559.78
4605.69,17494.05
4607.31,17061.91
4608.94,17347
4610.56,17576.75
4612.19,17669.13
4613.81,17881.37
4615.43,17329.35
4617.06,17990.02
4618.68,17423.53
4620.31,17761.15
4621.93,17679.76
4623.55,17106.1
4625.18,17393.58
4626.8,16959.07
4628.43,16783.8
4630.05,17370.56
4631.67,17107.68
4633.3,17132.78
4634.92,17343.05
4636.55,17101.46
4638.17,17080.96
4639.79,16991.83
4641.42,16860.39
4643.04,16765.35
4644.67,17504.96
4646.29,17000.03
4647.91,17063.34
4649.54,17161.51
4651.16,17395.13
4652.79,17733.4
4654.41,17776.74
4656.03,17997.82
4657.66,17141.3
4659.28,17970.83
4660.91,17641.05
4662.53,17842.35
4664.15,17806.92
4665.78,17766.12
4667.4,17516.61
4669.03,18168.58
4670.65,17730.65
4672.27,17764.03
4673.9,18163.02
4675.52,18236.98
4677.15,18001.65
4678.77,18070.78
4680.4,18051.69
4682.02,18040.32
4683.64,17999.88
4685.27,18521.22
4686.89,18271.64
4688.52,18159.08
4690.14,17901.49
4691.76,17672.44
4693.39,18372.66
4695.01,18314.32
4696.64,17994.74
4698.26,18420.85
4699.88,18400.24
4701.51,18891.79
4703.13,18682.53
4704.76,18858.24
4706.38,18608.31
4708,18370.01
4709.63,18565.98
4711.25,18179.85
4712.88,18360.72
4714.5,18563.51
4716.12,18649.58
4717.75,19068.91
4719.37,18922.82
4721,19244.6
4722.62,19637.96
4724.24,19422.57
4725.87,19554.44
4727.49,19992.81
4729.12,20948.85
4730.74,20772.17
4732.36,20620.83
4733.99,19730.44
4735.61,18455.76
4737.24,18130.71
4738.86,17872.13
4740.48,17745.78
4742.11,17639.6
4743.73,17738.49
4745.36,17668.53
4746.98,17442.61
4748.6,17687.61
4750.23,17596.72
4751.85,17134.34
4753.48,16899.19
4755.1,17272.92
4756.73,17185.61
4758.35,17112.01
4759.97,17382.13
4761.6,17125.66
4763.22,16778.62
4764.85,17021.19
4766.47,17273.97
4768.09,16920.5
4769.72,16805.53
4771.34,16706.38
4772.97,16333.38
4774.59,16373.07
4776.21,16067.99
4777.84,16124.96
4779.46,16176.43
4781.09,16715.2
4782.71,16466.68
4784.33,16581.02
4785.96,16622.49
4787.58,16214.12
4789.21,16433.01
4790.83,16254.78
4792.45,15913.27
4794.08,16317.54
4795.7,16082.26
4797.33,15827.52
4798.95,15865.8
4800.57,15503.93
4802.2,15603.86
4803.82,15836.33
4805.45,15642.63
4807.07,15739.3
4808.69,15731.41
4810.32,15506.94
4811.94,15444.08
4813.57,15364.25
4815.19,15467.67
4816.81,15784.36
4818.44,15882.94
4820.06,15710.34
4821.69,15649.3
4823.31,15734.3
4824.94,15735.29
4826.56,15683.59
4828.18,15673.2
4829.81,15744.93
4831.43,15675.93
4833.06,15520.9
4834.68,15993.51
4836.3,15952.6
4837.93,15664.81
4839.55,15871.41
4841.18,15648.73
4842.8,15884.45
4844.42,16009.96
4846.05,15985.93
4847.67,16092.55
4849.3,16284.71
4850.92,16233.63
4852.54,15996.78
4854.17,16238.55
4855.79,16642.83
4857.42,16815.14
4859.04,16806.55
4860.66,16901.85
4862.29,17409.57
4863.91,17608.94
4865.54,17795.02
4867.16,18362.37
4868.78,18838.54
4870.41,19278.99
4872.03,19112.39
4873.66,19308.79
4875.28,20067.93
4876.9,20526.14
4878.53,20892.67
4880.15,21583.93
4881.78,21740.29
4883.4,22457.3
4885.02,22973.3
4886.65,23334.82
4888.27,24203.49
4889.9,24882.99
4891.52,24562.31
4893.15,25367.73
4894.77,25510.34
4896.39,25763.21
4898.02,26370.43
4899.64,27613.92
4901.27,28285.81
4902.89,28148.2
4904.51,29233.99
4906.14,30546.81
4907.76,31232.78
4909.39,29818.07
4911.01,27905.34
4912.63,27255.52
4914.26,26300.71
4915.88,25140.55
4917.51,24814.51
4919.13,24909.25
4920.75,24325.91
4922.38,23543.26
4924,24864.48
4925.63,25250.41
4927.25,25621.67
4928.87,24769.19
4930.5,23993.52
4932.12,23459.39
4933.75,23042.31
4935.37,22243.06
4936.99,21542.17
4938.62,21058.79
4940.24,20265.34
4941.87,20039.2
4943.49,19801.98
4945.11,19544.45
4946.74,18995.59
4948.36,18462.88
4949.99,18317.03
4951.61,18174.42
4953.23,18025.69
4954.86,17905.51
4956.48,17042.82
4958.11,16557.11
4959.73,17626.34
4961.35,17575
4962.98,17279.31
4964.6,17268.8
4966.23,17183.01
4967.85,16901.85
4969.48,16781.98
4971.1,16695.14
4972.72,16851.9
4974.35,17115.72
4975.97,17114.62
4977.6,17095.65
4979.22,16864.14
4980.84,16637.25
4982.47,16695.9
4984.09,16366.19
4985.72,16367.36
4987.34,16448.85
4988.96,16579.7
4990.59,16791.69
4992.21,16767.59
4993.84,16999.94
4995.46,17431.79
4997.08,18133.34
4998.71,19203.99
5000.33,20722.76
5001.96,23311.77
5003.58,27938.76
5005.2,32386.29
5006.83,32550.03
5008.45,29335.64
5010.08,24443.61
5011.7,21604.86
5013.32,18539.95
5014.95,16360.77
5016.57,15952.71
5018.2,15603.74
5019.82,15209.13
5021.44,15249.03
5023.07,15104.78
5024.69,14743.3
5026.32,14579.22
5027.94,14455.72
5029.56,14461.59
5031.19,14762.09
5032.81,14631.21
5034.44,14736.03
5036.06,15692.47
5037.69,15784.56
5039.31,15828.58
5040.93,16740.76
5042.56,17572.3
5044.18,19208.33
5045.81,20350.76
5047.43,23346.88
5049.05,29270.45
5050.68,42836.47
5052.3,58661.24
5053.93,65521.29
5055.55,63700.76
5057.17,52294.09
5058.8,37833.07
5060.42,27385.36
5062.05,21681.06
5063.67,19016.51
5065.29,17427.48
5066.92,16186.53
5068.54,15353.22
5070.17,15139.23
5071.79,15538.17
5073.41,15218.45
5075.04,14888.88
5076.66,14802.17
5078.29,14964.35
5079.91,15041.66
5081.53,15151.77
5083.16,14623.48
5084.78,14299.95
5086.41,14419.94
5088.03,14216.89
5089.65,14179.26
5091.28,14278.43
5092.9,13917.41
5094.53,13896.8
5096.15,14050.06
5097.77,13765.85
5099.4,13534.4
5101.02,13512.92
5102.65,13705.7
5104.27,13771.09
5105.9,13952.89
5107.52,13672.93
5109.14,13758.49
5110.77,14026.91
5112.39,13445.33
5114.02,13171.92
5115.64,13070.49
5117.26,12927.58
5118.89,13135
5120.51,12960.56
5122.14,13003.29
5123.76,13223.74
5125.38,13148.57
5127.01,12905.4
5128.63,12752.67
5130.26,12929.15
5131.88,12763.18
5133.5,12520.89
5135.13,12947.41
5136.75,13235.23
5138.38,13093.07
5140,13348.55
5141.62,13417.27
5143.25,13023.16
5144.87,12930.31
5146.5,13180.78
5148.12,13025.74
5149.74,12806.61
5151.37,12996.68
5152.99,13159.71
5154.62,13031.14
5156.24,12843.3
5157.86,12669.5
5159.49,12807.2
5161.11,12956.23
5162.74,12715.75
5164.36,12839.73
5165.98,13135.33
5167.61,13110.2
5169.23,12909.42
5170.86,12653.58
5172.48,12581.06
5174.1,12614.88
5175.73,12486.1
5177.35,12459.09
5178.98,12634.64
5180.6,12822.64
5182.23,13112.35
5183.85,12894.63
5185.47,12889.25
5187.1,13004.73
5188.72,12940.03
5190.35,13102.9
5191.97,13341.51
5193.59,13391.89
5195.22,13221.42
5196.84,13351.33
5198.47,13488.84
5200.09,13801.4
5201.71,13823.43
5203.34,13896.17
5204.96,14032.05
5206.59,14286.42
5208.21,14309.92
5209.83,14104.36
5211.46,14039.21
5213.08,13870.63
5214.71,13359.82
5216.33,12940.16
5217.95,12491.29
5219.58,12743.23
5221.2,12853.74
5222.83,12893.19
5224.45,13102.7
5226.07,13398.97
5227.7,13546.42
5229.32,13514.21
5230.95,13218.01
5232.57,12828.67
5234.19,12544.85
5235.82,12638.75
5237.44,12960.95
5239.07,13080.7
5240.69,13283.52
5242.31,13044.01
5243.94,12664.04
5245.56,13185.57
5247.19,13589.99
5248.81,13600.77
5250.44,13439.42
5252.06,12974.71
5253.68,12722.85
5255.31,12578.41
5256.93,12288.61
5258.56,12523.51
5260.18,12657.01
5261.8,12782.6
5263.43,12812.04
5265.05,12689.38
5266.68,12828.8
5268.3,12885.46
5269.92,12898.64
5271.55,12685.22
5273.17,12543.48
5274.8,12488.47
5276.42,12891.04
5278.04,12841.06
5279.67,12622.09
5281.29,12765.38
5282.91,12996.78
5284.54,12991.25
5286.16,12894.72
5287.79,13053.11
5289.41,13100.75
5291.04,13079.1
5292.66,13224.89
5294.28,12825.69
5295.91,13005.92
5297.53,12919.74
5299.16,12719.37
5300.78,12733.69
5302.4,12847.95
5304.03,12735.68
5305.65,12857.62
5307.28,12952.87
5308.9,13188.21
5310.52,13271.46
5312.15,12995.45
5313.77,12741.91
5315.4,12456.86
5317.02,12442.39
5318.64,12427.21
5320.27,12500.41
5321.89,12729.26
5323.52,13008.41
5325.14,13035.22
5326.76,13017.59
5328.39,13334.83
5330.01,12867.02
5331.64,13104.94
5333.26,12599.49
5334.89,12818.8
5336.51,12896.63
5338.13,12899.93
5339.76,12900.2
5341.38,13363.48
5343.01,13037.46
5344.63,13055.37
5346.25,13184.07
5347.88,12989.41
5349.5,13239.13
5351.12,13134.09
5352.75,12988.34
5354.37,13668.52
5356,14010.52
5357.62,13502.02
5359.24,14133.95
5360.87,13624.56
5362.49,13892.78
5364.12,13503.66
5365.74,13267.24
5367.36,13335.89
5368.99,13152.38
5370.61,2081.188
5372.24,12761.63
5373.86,12884.75
5375.49,12952.38
5377.11,12252.23
5378.73,12010.16
5380.36,12203.22
5381.98,12373.77
5383.61,12593.81
5385.23,12219.58
5386.85,12618.31
5388.48,12575.66
5390.1,12964.38
5391.73,12421
5393.35,12132.11
5394.97,12821.57
5396.6,12416.67
5398.22,12069.63
5399.85,12290.53
5401.47,12649.02
5403.09,12396.61
5404.72,12274.56
5406.34,12226.11
5407.97,12304.06
5409.59,12535.28
5411.21,12150.4
5412.84,12228.1
5414.46,12232.01
5416.09,12095.23
5417.71,11975.47
5419.34,12032.93
5420.96,11940.97
5422.58,12066.49
5424.21,11753.65
5425.83,12045.06
5427.45,12048.98
5429.08,11721.17
5430.7,12027.17
5432.33,12246.59
5433.95,12079.74
5435.57,11762.39
5437.2,12080.17
5438.82,11894.94
5440.45,12185.81
5442.07,12124.78
5443.69,11750.63
5445.32,11711.45
5446.94,11581.36
5448.57,11497.4
5450.19,11350.96
5451.81,11354.05
5453.44,11668.63
5455.06,11694.9
5456.69,11639.6
5458.31,11603.74
5459.94,11549.64
5461.56,11731.77
5463.18,12052.1
5464.81,12104.79
5466.43,11933.33
5468.06,12075.87
5469.68,12369.5
5471.3,12158.76
5472.93,11985.28
5474.55,12029.51
5476.18,11906.39
5477.8,11992.52
5479.42,12030.49
5481.05,11728.16
5482.67,11916.75
5484.3,11895.96
5485.92,11547.12
5487.54,11337
5489.17,11415.79
5490.79,11880
5492.42,12254.73
5494.04,11743.68
5495.66,11631.4
5497.29,11639.61
5498.91,11786.48
5500.54,11546.18
5502.16,11379.28
5503.78,11557.16
5505.41,11609.16
5507.03,11542.24
5508.66,11371.34
5510.28,11484.97
5511.9,11618.07
5513.53,11368.64
5515.15,11415.42
5516.78,11262.61
5518.4,11391.31
5520.02,11433
5521.65,11464.28
5523.27,11463.44
5524.9,11284.74
5526.52,11205.46
5528.15,11570.08
5529.77,10895.37
5531.39,11374.17
5533.02,11616.66
5534.64,11647.48
5536.27,11500.75
5537.89,11565.3
5539.51,11399.23
5541.14,11571.03
5542.76,11407.32
5544.39,11304.69
5546.01,11730.52
5547.63,11124.08
5549.26,11914.87
5550.88,11723.65
5552.51,10008.18
5554.13,11271.29
5555.75,11831.23
5557.38,11540.67
5559,11537.74
5560.63,11623.52
5562.25,11518.95
5563.88,11485.89
5565.5,11613.25
5567.12,11637.5
5568.75,11939.13
5570.37,12588.57
5571.99,13770.17
5573.62,14953.28
5575.24,12364.24
5576.87,9170.416
5578.49,10337.82
5580.11,11832.85
5581.74,12780.65
5583.36,12725.52
5584.99,12239.12
5586.61,12304.82
5588.23,11934.78
5589.86,11836.06
5591.48,11808.91
5593.11,11486.82
5594.73,11509.7
5596.35,11480.82
5597.98,11377.07
5599.6,11191.99
5601.23,11362.21
5602.85,11338.01
5604.48,11370.34
5606.1,11628.93
5607.72,11483.36
5609.35,11471.75
5610.97,11489.31
5612.6,11583.17
5614.22,11502.4
5615.84,11462.95
5617.47,11412.35
5619.09,11293.27
5620.72,11319.44
5622.34,11183.75
5623.96,10965.37
5625.59,11056.32
5627.21,10955.51
5628.84,10924.86
5630.46,10954.57
5632.08,11404.94
5633.71,11376.25
5635.33,11274.68
5636.96,11097.37
5638.58,11072.57
5640.2,11027.18
5641.83,10950.36
5643.45,10832.8
5645.08,10806.14
5646.7,10732.62
5648.32,10677.82
5649.95,10774.16
5651.57,11068.79
5653.2,11138.84
5654.82,11145.45
5656.44,11211.5
5658.07,11161.24
5659.69,11178.24
5661.32,11203.36
5662.94,11127.21
5664.56,10892.34
5666.19,10846.64
5667.81,10923.28
5669.44,11248.11
5671.06,11236.44
5672.69,11127.68
5674.31,10884.32
5675.93,11152.27
5677.56,10989.8
5679.18,10960.29
5680.81,11262.16
5682.43,11662.74
5684.05,11380.79
5685.68,11163.14
5687.3,11455.24
5688.93,11137.65
5690.55,10987.86
5692.17,10868.63
5693.8,10731.08
5695.42,10807.33
5697.05,10774.02
5698.67,10696.07
5700.29,10779.91
5701.92,11025.06
5703.54,10821.38
5705.17,10303.94
5706.79,10120.71
5708.41,10511.28
5710.04,10836.66
5711.66,11124.95
5713.29,10757.45
5714.91,10851.59
5716.53,10773.85
5718.16,10400.29
5719.78,10541.39
5721.41,10692.51
5723.03,10859.65
5724.65,11124.68
5726.28,10834.83
5727.9,10975.52
5729.53,11149.22
5731.15,11122.41
5732.77,11023.67
5734.4,10860.93
5736.02,10694.93
5737.65,10802.22
5739.27,10763.65
5740.9,10710.37
5742.52,10644.98
5744.14,11036.38
5745.77,10922.06
5747.39,10780.64
5749.02,10603.04
5750.64,11085.45
5752.26,11255.49
5753.89,11112.29
5755.51,10516
5757.14,10586.66
5758.76,10712.75
5760.38,10780.11
5762.01,10714.61
5763.63,10792.09
5765.26,10951.59
5766.88,11174.79
5768.5,11661.81
5770.13,11576.93
5771.75,11612.48
5773.38,11710.75
5775,12095.79
5776.62,12220.97
5778.25,11899.82
5779.87,11343.72
5781.5,11331.32
5783.12,11461.69
5784.74,11447.01
5786.37,11319.76
5787.99,11235.61
5789.62,11074.48
5791.24,10968.14
5792.86,10955.93
5794.49,10856.09
5796.11,10953.76
5797.74,10969.04
5799.36,10812.97
5800.98,11215.54
5802.61,11259.3
5804.23,11267.64
5805.86,11361.22
5807.48,10723.79
5809.1,10974.14
5810.73,11355.48
5812.35,11119.52
5813.98,11311.35
5815.6,11141.34
5817.23,10807.35
5818.85,10760.88
5820.47,11267.42
5822.1,11332.06
5823.72,11066.04
5825.35,11248.54
5826.97,11187.43
5828.59,11143.52
5830.22,11109.84
5831.84,10892.8
5833.47,10905.38
5835.09,10909.42
5836.71,10908.03
5838.34,10592.72
5839.96,10664.33
5841.59,10680.11
5843.21,10409.37
5844.83,11019.52
5846.46,11008.28
5848.08,10839.36
5849.71,10690.76
5851.33,10718.39
5852.95,10829.34
5854.58,10977.08
5856.2,11266.66
5857.83,11075.87
5859.45,11037.26
5861.07,11070.24
5862.7,11020.4
5864.32,11249.66
5865.95,11257.61
5867.57,11035.86
5869.19,11416.53
5870.82,11269.18
5872.44,11104.88
5874.07,10938.54
5875.69,11204.71
5877.31,11132.81
5878.94,11092.44
5880.56,11271.02
5882.19,11102.14
5883.81,11184.99
5885.44,11247.07
5887.06,11035.42
5888.68,10747.87
5890.31,10650.29
5891.93,10580.5
5893.56,10364.96
5895.18,10773.27
5896.8,10866
5898.43,10789.29
5900.05,11170.12
5901.68,11315.86
5903.3,11376.69
5904.92,11368.95
5906.55,11655.56
5908.17,11837.32
5909.8,11925.93
5911.42,11919.84
5913.04,12006.95
5914.67,11893.74
5916.29,11870.64
5917.92,12158.46
5919.54,12349.18
5921.16,12326.79
5922.79,12333.02
5924.41,12661.89
5926.04,12741.99
5927.66,13018.48
5929.28,13337.41
5930.91,13592.14
5932.53,13401.02
5934.16,13233.2
5935.78,13045.29
5937.4,12829.63
5939.03,12661.38
5940.65,12420.59
5942.28,12099.13
5943.9,11767.22
5945.52,11434.38
5947.15,11276.78
5948.77,11368.49
5950.4,11451.85
5952.02,11481.39
5953.65,11554.31
5955.27,11771.63
5956.89,11833.65
5958.52,11703.38
5960.14,11545.95
5961.77,11448.12
5963.39,11513.93
5965.01,11468.18
5966.64,11406.12
5968.26,11511.59
5969.89,11131.39
5971.51,10935.52
5973.13,10807.89
5974.76,10854.52
5976.38,10843.01
5978.01,10897.34
5979.63,10977.5
5981.25,10750.05
5982.88,10712.19
5984.5,10727.05
5986.13,10810.65
5987.75,10789.55
5989.37,10849.33
5991,10857.58
5992.62,10794.46
5994.25,10448.94
5995.87,10346.2
5997.49,10359.66
5999.12,10677.3
6000.74,10575.4
6002.37,10571.42
6003.99,10606.09
6005.61,10790.49
6007.24,10678.87
6008.86,10543.48
6010.49,10399.19
6012.11,10525.93
6013.73,10572.33
6015.36,10658.2
6016.98,10754.81
6018.61,10805.46
6020.23,10794.76
6021.85,10830.75
6023.48,10917.45
6025.1,10745.41
6026.73,10626.29
6028.35,10548.37
6029.98,10569.75
6031.6,10601.36
6033.22,10652.62
6034.85,10665.22
6036.47,10606.35
6038.1,10459.37
6039.72,10474.08
6041.34,10510.54
6042.97,10554.98
6044.59,10611.26
6046.22,10528.86
6047.84,10365.96
6049.46,10053.64
6051.09,10233.16
6052.71,10395.55
6054.34,10540.49
6055.96,10438.74
6057.58,10303.99
6059.21,10181.74
6060.83,10062.33
6062.46,9831.405
6064.08,10023.73
6065.7,10184.86
6067.33,10335.67
6068.95,10163.19
6070.58,10113.95
6072.2,10103.03
6073.82,10190.48
6075.45,10384.26
6077.07,10246.53
6078.7,10081.95
6080.32,10089.24
6081.94,10237.31
6083.57,10188.72
6085.19,10097.34
6086.82,10212.15
6088.44,10372.27
6090.06,10424.84
6091.69,10417.68
6093.31,10495.1
6094.94,10445.92
6096.56,10347.61
6098.19,10217.96
6099.81,10053.27
6101.43,10085.65
6103.06,10113.79
6104.68,10166.36
6106.31,10443.51
6107.93,10452.34
6109.55,10407.13
6111.18,10310.79
6112.8,10631.34
6114.43,10470.67
6116.05,10279.82
6117.67,10252.68
6119.3,10364.3
6120.92,10256.66
6122.55,10128.3
6124.17,10253.71
6125.79,10260.64
6127.42,10349.67
6129.04,10470.99
6130.67,10676.43
6132.29,11030.15
6133.91,11129.59
6135.54,11044.66
6137.16,11347.58
6138.79,11490.52
6140.41,11738.4
6142.03,12127.51
6143.66,12490.42
6145.28,12190.99
6146.91,11868.55
6148.53,11563.84
6150.15,11233.77
6151.78,11004.56
6153.4,10783.68
6155.03,10569.15
6156.65,10117.76
6158.27,10073.21
6159.9,10083.28
6161.52,9963.548
6163.15,10097.1
6164.77,10170.49
6166.4,10215.62
6168.02,10228.47
6169.64,9923.614
6171.27,9815.942
6172.89,9814.887
6174.52,10188.47
6176.14,10111.97
6177.76,10040.73
6179.39,9967.507
6181.01,9965.979
6182.64,9811.414
6184.26,9726.052
6185.88,9780.039
6187.51,9903.854
6189.13,9812.832
6190.76,9717.166
6192.38,9698.651
6194,9795.874
6195.63,9763.158
6197.25,9692.368
6198.88,9611.826
6200.5,9603.481
6202.12,9600.268
6203.75,9613.438
6205.37,9847.404
6207,9827.021
6208.62,9813.725
6210.24,9779.04
6211.87,9619.572
6213.49,9424.998
6215.12,9408.378
6216.74,9549.682
6218.36,9487.328
6219.99,9611.404
6221.61,9585.576
6223.24,9361.441
6224.86,9258.403
6226.48,9290.947
6228.11,9398.059
6229.73,9697.024
6231.36,9557.596
6232.98,9542.285
6234.6,9565.69
6236.23,9676.128
6237.85,9546.334
6239.48,9530.303
6241.1,9523.572
6242.73,9431.334
6244.35,9226.387
6245.97,9407.044
6247.6,9728.944
6249.22,9396.13
6250.85,9452.608
6252.47,9437.312
6254.09,9354.61
6255.72,9109.322
6257.34,9507.921
6258.97,9622.379
6260.59,9387.746
6262.21,9295.518
6263.84,9444.535
6265.46,9491.047
6267.09,9329.083
6268.71,9431.422
6270.33,9489.908
6271.96,9505.265
6273.58,9434.86
6275.21,9257.664
6276.83,9116.334
6278.45,8984.428
6280.08,8949.561
6281.7,8785.546
6283.33,8778.431
6284.95,8853.419
6286.57,9272.713
6288.2,9347.644
6289.82,9302.131
6291.45,9160.169
6293.07,9450.295
6294.69,9307.763
6296.32,9204.461
6297.94,9131.479
6299.57,8892.355
6301.19,9020.813
6302.81,9111.109
6304.44,9126.733
6306.06,9163.733
6307.69,9274.477
6309.31,9307.124
6310.94,9118.842
6312.56,9094.039
6314.18,9131.353
6315.81,9172.838
6317.43,9217.62
6319.06,9144.025
6320.68,9306.168
6322.3,9502.604
6323.93,9254.081
6325.55,9471.69
6327.18,9563.693
6328.8,9559.951
6330.42,9223.757
6332.05,9317.988
6333.67,9373.967
6335.3,9397.94
6336.92,9569.61
6338.54,9473.285
6340.17,9414.791
6341.79,9449.539
6343.41,9191.468
6345.04,9223.249
6346.66,9356.996
6348.29,9744.044
6349.91,9861.897
6351.54,9974.551
6353.16,10072.77
6354.78,10164.08
6356.41,10582.91
6358.03,11010.41
6359.66,11437.4
6361.28,11831.88
6362.9,11663.3
6364.53,11331.07
6366.15,10876.8
6367.78,10523.04
6369.4,10335.43
6371.02,10159.21
6372.65,9971.929
6374.27,9818.744
6375.9,9758.747
6377.52,9626.571
6379.15,9402.187
6380.77,9408.983
6382.39,9532.848
6384.02,9653.962
6385.64,9793.048
6387.27,9604.855
6388.89,9663.133
6390.51,9808.565
6392.14,10202.89
6393.76,9900.364
6395.39,9655.963
6397.01,9491.405
6398.63,9874.052
6400.26,9989.572
6401.88,10011.88
6403.51,9971.479
6405.13,9848.729
6406.75,9908.706
6408.38,10037.47
6410,10206.8
6411.62,10035.2
6413.25,9992.692
6414.87,10071.37
6416.5,10314.9
6418.12,10387.33
6419.74,10453.76
6421.37,10472.6
6422.99,10429.16
6424.62,10713.16
6426.24,10941.97
6427.86,11064.24
6429.49,10910
6431.11,10946.31
6432.74,11033.98
6434.36,11065.13
6435.99,10760.36
6437.61,10289.42
6439.23,10111.87
6440.86,10049.47
6442.48,10242.22
6444.11,10122.14
6445.73,10102.32
6447.35,10124.32
6448.98,9820.68
6450.6,9670.23
6452.23,9650.527
6453.85,9770.762
6455.48,9703.098
6457.1,9600.24
6458.72,9582.244
6460.35,9756.735
6461.97,9694.069
6463.6,9589.943
6465.22,9509.531
6466.84,9539.025
6468.47,9438.126
6470.09,9471.9
6471.72,9513.151
6473.34,9498.947
6474.96,9412.308
6476.59,9392.189
6478.21,9381.326
6479.84,9348.1
6481.46,9535.143
6483.08,9627.188
6484.71,9646.186
6486.33,9659.804
6487.95,9673.553
6489.58,9610.297
6491.2,9466.624
6492.83,9594.532
6494.45,9796.826
6496.07,9905.881
6497.7,9902.913
6499.32,9909.77
6500.95,9958.65
6502.57,10006.71
6504.19,10081.58
6505.82,9931.812
6507.44,9971.068
6509.07,10036.62
6510.69,10131.5
6512.32,9818.525
6513.94,9778.143
6515.56,9825.179
6517.19,9972.377
6518.81,10017.93
6520.44,10016.86
6522.06,9976.184
6523.68,9948.44
6525.31,10114.69
6526.93,10206.61
6528.56,10256.67
6530.18,10309.85
6531.81,10403.42
6533.43,10459.22
6535.05,10495.46
6536.68,10503.46
6538.3,10506.37
6539.93,10504.68
6541.55,10526.59
6543.17,10564.08
6544.8,10607.15
6546.42,10682.69
6548.05,10928.09
6549.67,10974.55
6551.29,10953.73
6552.92,10941.77
6554.54,11239.8
6556.16,11498.13
6557.79,11662.14
6559.41,11764.64
6561.04,11716.24
6562.66,12175.45
6564.28,12661.46
6565.91,13177.04
6567.53,13473.27
6569.16,13702.45
6570.78,13975.9
6572.4,14323.41
6574.03,14856.11
6575.65,15429.96
6577.28,16067.3
6578.9,16961.76
6580.52,17358.68
6582.15,17930.73
6583.77,18548.13
6585.4,19362.28
6587.02,20432.52
6588.65,21320.6
6590.27,22219.92
6591.89,23518.15
6593.52,24742.38
6595.14,26015.44
6596.77,27358.54
6598.39,28729.16
6600.01,28722.64
6601.64,29389.7
6603.26,30515.38
6604.89,32737.14
6606.51,34455.28
6608.13,36316.82
6609.76,38517.75
6611.38,41222
6613.01,42063.93
6614.63,43148.58
6616.26,45042.36
6617.88,45324.47
6619.5,46556.47
6621.13,48037.55
6622.75,50299.24
6624.38,53130.41
6626,53898.43
6627.62,53529.45
6629.25,50007.53
6630.87,46528.82
6632.49,43546.53
6634.12,40635.53
6635.74,38349.33
6637.37,37251.6
6638.99,36760.19
6640.61,36524.02
6642.24,36518.28
6643.86,37273.53
6645.49,38133.12
6647.11,39180.57
6648.73,40085
6650.36,36901.73
6651.98,33741.84
6653.61,30515.26
6655.23,28058.17
6656.85,26855.1
6658.48,25685.64
6660.1,24259.74
6661.73,22766.25
6663.35,21628.56
6664.98,20493.73
6666.6,19087.37
6668.22,17868.1
6669.85,17208.19
6671.47,16682.7
6673.1,16138.38
6674.72,15234.11
6676.34,14684.28
6677.97,14255.25
6679.59,13717.37
6681.22,13310.21
6682.84,12988.46
6684.46,12716.11
6686.09,12253.09
6687.71,11826.12
6689.34,11607.17
6690.96,11693.97
6692.59,11309.39
6694.21,11107.56
6695.83,10915.6
6697.46,10727.63
6699.08,10682.52
6700.7,10516.58
6702.33,10351.39
6703.95,10292.78
6705.58,10317.7
6707.2,10269.45
6708.82,10196.83
6710.45,10208.27
6712.07,10332.57
6713.7,10380.08
6715.32,10358.46
6716.94,10022.78
6718.57,10012.96
6720.19,9879.934
6721.82,9627.884
6723.44,9573.075
6725.06,9772.066
6726.69,9899.54
6728.31,9946.409
6729.94,10038.65
6731.56,9851.289
6733.19,9691.369
6734.81,9610.327
6736.43,9852.977
6738.06,9832.611
6739.68,9780.366
6741.31,9772.205
6742.93,9733.284
6744.55,9603.547
6746.18,9505.17
6747.8,9775.081
6749.43,9552.313
6751.05,9493.751
6752.67,9485.197
6754.3,9503.623
6755.92,9404.442
6757.55,9371.362
6759.17,9360.376
6760.79,9273.303
6762.42,9163.098
6764.04,9139.961
6765.67,9206.142
6767.29,9133.193
6768.91,9012.326
6770.54,8935.739
6772.16,8956.698
6773.79,9046.241
6775.41,9177.383
6777.03,9485.136
6778.66,10326.92
6780.28,11154.17
6781.91,11272.51
6783.53,11087.89
6785.15,10212.49
6786.78,9439.875
6788.4,9300.777
6790.03,9394.354
6791.65,9710.893
6793.27,10610.38
6794.9,11147.04
6796.52,11462.77
6798.15,10951.36
6799.77,10375.61
6801.4,9682.459
6803.02,8803.929
6804.64,8538.09
6806.27,8215.527
6807.89,8104.102
6809.52,8332.743
6811.14,8374.757
6812.76,8310.116
6814.39,8221.387
6816.01,8113.679
6817.64,8133.558
6819.26,8226.117
6820.88,8237.699
6822.51,7909.77
6824.13,8038.759
6825.76,8076.982
6827.38,8078.373
6829,8081.314
6830.63,7974.564
6832.25,7942.965
6833.88,7946.859
6835.5,8160.93
6837.12,8233.639
6838.75,8139.22
6840.37,7903.329
6842,8251.757
6843.62,7923.51
6845.24,7821.115
6846.87,8036.729
6848.49,8140.789
6850.12,8031.059
6851.74,7941.339
6853.36,7943.219
6854.99,7824.18
6856.61,7952.845
6858.24,8027.709
6859.86,7807.614
6861.48,7792.785
6863.11,8061.329
6864.73,8259.442
6866.36,7539.967
6867.98,6622.109
6869.6,6318.514
6871.23,6282.633
6872.85,6532.917
6874.48,7593.032
6876.1,8115.418
6877.73,8268.393
6879.35,7885.418
6880.97,7799.503
6882.6,7766.934
6884.22,7790.988
6885.85,7694.349
6887.47,7587.874
6889.09,7593.923
6890.72,7852.753
6892.34,7886.073
6893.97,7796.879
6895.59,7707.543
6897.21,7690.293
6898.84,7617.385
6900.46,7622.771
6902.09,7637.648
6903.71,7649.865
6905.33,7549.615
6906.96,7584.892
6908.58,7612.866
6910.21,7059.138
6911.83,7198.504
6913.45,7298.666
6915.08,7361.319
6916.7,7361.926
6918.33,7362.124
6919.95,7381.921
6921.57,7423.313
6923.2,7288.265
6924.82,7306.56
6926.45,7237.066
6928.07,7019.894
6929.69,7214.748
6931.32,7281.96
6932.94,7321.001
6934.57,7350.052
6936.19,7292.329
6937.81,7225.856
6939.44,7153.698
6941.06,7116.196
6942.69,7244.014
6944.31,7356.818
6945.94,7443.155
6947.56,7384.82
6949.18,7352.883
6950.81,7312.934
6952.43,7265.891
6954.06,7537.331
6955.68,7366.253
6957.3,7340.706
6958.93,7455.388
6960.55,7279.235
6962.18,7296.267
6963.8,7368.17
6965.42,7546.636
6967.05,7544.758
6968.67,7569.32
6970.3,7593.214
6971.92,7637.576
6973.54,7670.562
6975.17,7639.277
6976.79,7566.621
6978.42,7403.107
6980.04,7505.032
6981.66,7507.19
6983.29,7457.409
6984.91,7343.576
6986.54,7190.53
6988.16,7225.298
6989.78,7332.107
6991.41,7188.314
6993.03,7361.755
6994.66,7360.739
6996.28,7221.957
6997.9,7192.865
6999.53,7096.944
7001.15,7133.366
7002.78,7372.285
7004.4,7216.098
7006.02,7109.677
7007.65,7043.753
7009.27,7077.848
7010.9,6887.841
7012.52,7081.502
7014.15,7245.52
7015.77,7137.193
7017.39,7225.739
7019.02,7199.241
7020.64,7152.984
7022.27,7231.241
7023.89,7041.115
7025.51,7003.208
7027.14,7044.421
7028.76,7330.042
7030.39,7224.984
7032.01,7287.729
7033.63,7458.595
7035.26,7425.293
7036.88,7375.071
7038.51,7282.46
7040.13,7126.256
7041.75,7228.757
7043.38,7173.854
7045,7137.662
7046.63,7169.281
7048.25,7311.606
7049.87,7338.7
7051.5,7314.563
7053.12,7210.195
7054.75,7182.824
7056.37,7125.067
7057.99,7074.8
7059.62,7149.608
7061.24,7086.086
7062.87,7121.006
7064.49,7179.877
7066.11,7164.968
7067.74,7217.586
7069.36,7324.225
7070.99,7452.499
7072.61,7380.129
7074.23,7220.439
7075.86,7203.004
7077.48,7331.23
7079.11,7153.739
7080.73,7098.514
7082.35,7065.517
7083.98,7079.88
7085.6,7055.128
7087.23,7175.543
7088.85,7255.542
7090.48,7216.629
7092.1,7388.584
7093.72,7385.953
7095.35,7344.982
7096.97,7302.185
7098.6,7371.016
7100.22,7300.031
7101.84,7210.027
7103.47,7475.222
7105.09,7223.597
7106.72,7204.014
7108.34,7296.14
7109.96,7264.779
7111.59,7303.158
7113.21,7402.928
7114.84,7569.619
7116.46,7466.135
7118.08,7539.354
7119.71,7575.604
7121.33,7580.106
7122.96,7867.924
7124.58,7810.569
7126.2,7741.366
7127.83,7731.859
7129.45,7838.209
7131.08,7879.03
7132.7,7878.031
7134.32,7790.399
7135.95,7862.287
7137.57,7722.245
7139.2,7519.397
7140.82,7378.653
7142.44,7396.925
7144.07,7509.949
7145.69,7642.333
7147.32,7368.846
7148.94,7489.083
7150.56,7496.648
7152.19,7419.093
7153.81,7286.547
7155.44,7085.875
7157.06,6999.261
7158.69,7076.092
7160.31,6974.153
7161.93,7086.595
7163.56,7211.839
7165.18,7359.917
7166.81,6387.125
7168.43,6212.061
7170.05,6142.459
7171.68,6046.987
7173.3,5892.006
7174.93,5778.974
7176.55,5689.271
7178.17,5728.353
7179.8,5766.633
7181.42,5740.231
7183.05,5663.276
7184.67,5442.517
7186.29,5431.776
7187.92,5459.011
7189.54,5502.738
7191.17,5388.688
7192.79,5470.996
7194.41,5534.888
7196.04,5581.42
7197.66,5589.457
7199.29,5714.902
7200.91,5832.82
7202.53,5957.143
7204.16,6217.904
7205.78,6260.902
7207.41,6256.776
7209.03,6199.823
7210.65,6145.345
7212.28,6190.227
7213.9,6227.845
7215.53,6141.647
7217.15,6037.167
7218.77,5998.129
7220.4,5976.693
7222.02,5975.257
7223.65,5913.25
7225.27,5897.017
7226.9,5894.067
7228.52,5747.091
7230.14,5633.598
7231.77,5578.241
7233.39,5571.071
7235.02,5375.777
7236.64,5361.495
7238.26,5371.642
7239.89,5429.726
7241.51,5300.867
7243.14,5383.699
7244.76,5478.201
7246.38,5574.692
7248.01,5642.352
7249.63,5620.156
7251.26,5551.086
7252.88,5387.186
7254.5,5418.727
7256.13,5427.96
7257.75,5436.953
7259.38,5563.125
7261,5452.996
7262.62,5398.089
7264.25,5371.093
7265.87,5575.544
7267.5,5608.619
7269.12,5618.441
7270.74,5610.032
7272.37,5392.943
7273.99,5193.388
7275.62,5086.543
7277.24,5113.18
7278.86,5292.834
7280.49,5386.939
7282.11,5478.819
7283.74,5610.778
7285.36,5479.314
7286.98,5406.573
7288.61,5366.102
7290.23,5436.413
7291.86,5378.163
7293.48,5422.509
7295.1,5506.05
7296.73,5689.221
7298.35,5639.354
7299.98,5553.447
7301.6,5435.027
7303.23,5350.176
7304.85,5398.242
7306.47,5480.574
7308.1,5599.562
7309.72,5413.863
7311.35,5439.606
7312.97,5451.122
7314.59,5459.695
7316.22,5300.095
7317.84,5372.654
7319.47,5504.591
7321.09,5770.346
7322.71,5752.247
7324.34,5732.935
7325.96,5740.192
7327.59,5864.012
7329.21,5711.627
7330.83,5638.679
7332.46,5604.531
7334.08,5726.86
7335.71,5773.027
7337.33,5804.008
7338.95,5806.77
7340.58,5615.479
7342.2,5714.499
7343.83,5841.028
7345.45,5976.85
7347.07,5805.429
7348.7,5801.279
7350.32,5774.806
7351.95,5717.643
7353.57,5741.468
7355.19,5695.136
7356.82,5618.546
7358.44,5499.206
7360.07,5401.829
7361.69,5540.224
7363.31,5641.29
7364.94,5573.479
7366.56,5537.36
7368.19,5642.605
7369.81,5741.46
7371.44,5684.091
7373.06,5606.989
7374.68,5658.218
7376.31,5745.557
7377.93,5756.093
7379.56,5681.498
7381.18,5680.371
7382.8,5716.16
7384.43,5817.962
7386.05,5929.048
7387.68,5992.171
7389.3,6018.909
7390.92,6047.752
7392.55,5996.805
7394.17,5923.276
7395.8,5824.896
7397.42,5839.996
7399.04,5911.287
7400.67,5987.92
7402.29,6092.773
7403.92,5748.787
7405.54,5762.98
7407.16,5808.333
7408.79,5711.356
7410.41,5696.545
7412.04,5686.586
7413.66,5654.423
7415.28,5509.433
7416.91,5452.863
7418.53,5455.715
7420.16,5487.129
7421.78,5626.502
7423.4,5511.812
7425.03,5456.929
7426.65,5451.403
7428.28,5503.914
7429.9,5336.968
7431.52,5267.294
7433.15,5356.689
7434.77,5458.324
7436.4,5365.093
7438.02,5277.235
7439.65,5245.309
7441.27,5590.436
7442.89,5499.22
7444.52,5399.112
7446.14,5568.069
7447.77,5568.252
7449.39,5499.724
7451.01,5431.74
7452.64,5564.388
7454.26,5482.672
7455.89,5426.243
7457.51,5380.209
7459.13,5420.213
7460.76,5332.641
7462.38,5282.347
7464.01,5252.26
7465.63,5428.385
7467.25,5403.813
7468.88,5359.166
7470.5,5288.21
7472.12,5541.631
7473.75,5460.744
7475.37,5373.331
7477,5320.946
7478.62,5272.729
7480.24,5292.271
7481.87,5305.977
7483.49,5296.231
7485.12,5087.672
7486.74,5076.484
7488.37,5102.128
7489.99,5083.475
7491.61,5158.818
7493.24,5158.658
7494.86,5128.785
7496.49,5215.138
7498.11,5113.168
7499.73,5135.904
7501.36,5240.485
7502.98,5392.532
7504.61,5228.64
7506.23,5118.554
7507.85,5056.009
7509.48,5141.932
7511.1,5272.262
7512.73,5329.084
7514.35,5270.131
7515.98,5194.301
7517.6,5115.697
7519.22,5062.722
7520.85,5100.259
7522.47,5248.199
7524.1,5369.539
7525.72,5447.369
7527.34,5340.64
7528.97,5240.578
7530.59,5189.41
7532.22,5154.875
7533.84,5191.544
7535.46,5159.164
7537.09,5176.133
7538.71,5212.634
7540.34,5162.673
7541.96,5142.102
7543.58,5152.505
7545.21,5194.726
7546.83,5182.768
7548.45,5180.899
7550.08,5164.04
7551.7,5137.774
7553.33,5023.191
7554.95,5052.244
7556.57,5110.981
7558.2,5234.577
7559.82,5348.166
7561.45,5347.744
7563.07,5264.425
7564.7,4934.94
7566.32,4934.358
7567.94,4961.837
7569.57,4990.894
7571.19,4969.547
7572.82,5042.218
7574.44,5062.18
7576.06,5041.029
7577.69,4886.407
7579.31,4913.476
7580.94,4928.312
